#K-Path(1/A) Energy-Level(eV)
# NKPTS & NBANDS: 100  18
# Band-Index    1
   0.00000    -28.345850
   0.05471    -28.346638
   0.10942    -28.348709
   0.16414    -28.351300
   0.21885    -28.353935
   0.27356    -28.356333
   0.32827    -28.358165
   0.38298    -28.359296
   0.43770    -28.361166
   0.49241    -28.364462
   0.54712    -28.367590
   0.60183    -28.370816
   0.65654    -28.373939
   0.71126    -28.376719
   0.76597    -28.379407
   0.82068    -28.381891
   0.87539    -28.384192
   0.93010    -28.385995
   0.98482    -28.387427
   1.03953    -28.388465
   1.09424    -28.389029
   1.14895    -28.389326
   1.14895    -28.389327
   1.20698    -28.390443
   1.26501    -28.393574
   1.32305    -28.397820
   1.38108    -28.402359
   1.43911    -28.406466
   1.49714    -28.409944
   1.55517    -28.412467
   1.55517    -28.412467
   1.60815    -28.413650
   1.66114    -28.413946
   1.71412    -28.413213
   1.76711    -28.411526
   1.82009    -28.409029
   1.87308    -28.405805
   1.92606    -28.401808
   1.97905    -28.397330
   2.03203    -28.392510
   2.08502    -28.387489
   2.13800    -28.384558
   2.19098    -28.382266
   2.24397    -28.379572
   2.29695    -28.376643
   2.34994    -28.373230
   2.40292    -28.369488
   2.45591    -28.365478
   2.50889    -28.361274
   2.56188    -28.357017
   2.61486    -28.352912
   2.66785    -28.349310
   2.72083    -28.346781
   2.77382    -28.345850
   2.77382    -28.345850
   2.82910    -28.346623
   2.88437    -28.348726
   2.93965    -28.351736
   2.99493    -28.355040
   3.05021    -28.358517
   3.10549    -28.361866
   3.16077    -28.364798
   3.21605    -28.367526
   3.27133    -28.369881
   3.32661    -28.371838
   3.38189    -28.373452
   3.43716    -28.374778
   3.49244    -28.375613
   3.54772    -28.376290
   3.60300    -28.376806
   3.65828    -28.377136
   3.71356    -28.377423
   3.76884    -28.377532
   3.76884    -28.377532
   3.82300    -28.378787
   3.87716    -28.382113
   3.93133    -28.386651
   3.98549    -28.391529
   4.03965    -28.396245
   4.09381    -28.400558
   4.14797    -28.404116
   4.20214    -28.406957
   4.25630    -28.409028
   4.31046    -28.410407
   4.36462    -28.411126
   4.41878    -28.411171
   4.47295    -28.410570
   4.52711    -28.409582
   4.58127    -28.408198
   4.58127    -28.408198
   4.63872    -28.407815
   4.69617    -28.406718
   4.75361    -28.404974
   4.81106    -28.402630
   4.86851    -28.399874
   4.92596    -28.396911
   4.98340    -28.394036
   5.04085    -28.391635
   5.09830    -28.389901
   5.15575    -28.389327
 
# Band-Index    2
   5.15575    -28.389323
   5.09830    -28.389897
   5.04085    -28.391631
   4.98340    -28.394032
   4.92596    -28.396908
   4.86851    -28.399871
   4.81106    -28.402626
   4.75361    -28.404971
   4.69617    -28.406715
   4.63872    -28.407812
   4.58127    -28.408195
   4.58127    -28.408195
   4.52711    -28.406416
   4.47295    -28.404309
   4.41878    -28.402036
   4.36462    -28.399527
   4.31046    -28.396896
   4.25630    -28.394179
   4.20214    -28.391467
   4.14797    -28.388777
   4.09381    -28.386178
   4.03965    -28.383788
   3.98549    -28.381665
   3.93133    -28.379882
   3.87716    -28.378615
   3.82300    -28.377785
   3.76884    -28.377531
   3.76884    -28.377531
   3.71356    -28.377422
   3.65828    -28.377136
   3.60300    -28.376805
   3.54772    -28.376289
   3.49244    -28.375612
   3.43716    -28.374777
   3.38189    -28.373451
   3.32661    -28.371838
   3.27133    -28.369880
   3.21605    -28.367525
   3.16077    -28.364798
   3.10549    -28.361865
   3.05021    -28.358516
   2.99493    -28.355040
   2.93965    -28.351735
   2.88437    -28.348725
   2.82910    -28.346622
   2.77382    -28.345850
   2.77382    -28.345850
   2.72083    -28.346118
   2.66785    -28.346909
   2.61486    -28.348242
   2.56188    -28.350191
   2.50889    -28.352653
   2.45591    -28.355649
   2.40292    -28.359150
   2.34994    -28.363129
   2.29695    -28.367490
   2.24397    -28.372128
   2.19098    -28.377161
   2.13800    -28.382209
   2.08502    -28.386537
   2.03203    -28.388121
   1.97905    -28.389387
   1.92606    -28.390368
   1.87308    -28.391000
   1.82009    -28.391433
   1.76711    -28.391642
   1.71412    -28.391730
   1.66114    -28.391629
   1.60815    -28.391350
   1.55517    -28.391071
   1.55517    -28.391071
   1.49714    -28.390715
   1.43911    -28.390389
   1.38108    -28.390048
   1.32305    -28.389655
   1.26501    -28.389424
   1.20698    -28.389319
   1.14895    -28.389323
   1.14895    -28.389322
   1.09424    -28.389026
   1.03953    -28.388461
   0.98482    -28.387423
   0.93010    -28.385991
   0.87539    -28.384188
   0.82068    -28.381887
   0.76597    -28.379403
   0.71126    -28.376715
   0.65654    -28.373935
   0.60183    -28.370812
   0.54712    -28.367586
   0.49241    -28.364458
   0.43770    -28.361162
   0.38298    -28.358056
   0.32827    -28.355119
   0.27356    -28.352428
   0.21885    -28.350112
   0.16414    -28.348266
   0.10942    -28.347029
   0.05471    -28.346135
   0.00000    -28.345850
 
# Band-Index    3
   0.00000    -28.345843
   0.05471    -28.346132
   0.10942    -28.347025
   0.16414    -28.348262
   0.21885    -28.350108
   0.27356    -28.352424
   0.32827    -28.355116
   0.38298    -28.358052
   0.43770    -28.359540
   0.49241    -28.359045
   0.54712    -28.357596
   0.60183    -28.355290
   0.65654    -28.352087
   0.71126    -28.347893
   0.76597    -28.342791
   0.82068    -28.336786
   0.87539    -28.329884
   0.93010    -28.322076
   0.98482    -28.313416
   1.03953    -28.303940
   1.09424    -28.293756
   1.14895    -28.282856
   1.14895    -28.282857
   1.20698    -28.282759
   1.26501    -28.282404
   1.32305    -28.281922
   1.38108    -28.281289
   1.43911    -28.280528
   1.49714    -28.279753
   1.55517    -28.279050
   1.55517    -28.279050
   1.60815    -28.278510
   1.66114    -28.278219
   1.71412    -28.278283
   1.76711    -28.278895
   1.82009    -28.280390
   1.87308    -28.282912
   1.92606    -28.286880
   1.97905    -28.292254
   2.03203    -28.298883
   2.08502    -28.306119
   2.13800    -28.313365
   2.19098    -28.320398
   2.24397    -28.326711
   2.29695    -28.332289
   2.34994    -28.336830
   2.40292    -28.340384
   2.45591    -28.342998
   2.50889    -28.344694
   2.56188    -28.345619
   2.61486    -28.345949
   2.66785    -28.346028
   2.72083    -28.345920
   2.77382    -28.345843
   2.77382    -28.345843
   2.82910    -28.345683
   2.88437    -28.345063
   2.93965    -28.344346
   2.99493    -28.343311
   3.05021    -28.342036
   3.10549    -28.340586
   3.16077    -28.338866
   3.21605    -28.336959
   3.27133    -28.335128
   3.32661    -28.333290
   3.38189    -28.331644
   3.43716    -28.329970
   3.49244    -28.328452
   3.54772    -28.327120
   3.60300    -28.326089
   3.65828    -28.325306
   3.71356    -28.324695
   3.76884    -28.324560
   3.76884    -28.324560
   3.82300    -28.323022
   3.87716    -28.318911
   3.93133    -28.313270
   3.98549    -28.307014
   4.03965    -28.300605
   4.09381    -28.294366
   4.14797    -28.288189
   4.20214    -28.281948
   4.25630    -28.275514
   4.31046    -28.268748
   4.36462    -28.261495
   4.41878    -28.253658
   4.47295    -28.245091
   4.52711    -28.235857
   4.58127    -28.225942
   4.58127    -28.225942
   4.63872    -28.227798
   4.69617    -28.232977
   4.75361    -28.240264
   4.81106    -28.248592
   4.86851    -28.257095
   4.92596    -28.265211
   4.98340    -28.272343
   5.04085    -28.277982
   5.09830    -28.281586
   5.15575    -28.282857
 
# Band-Index    4
   5.15575    -28.282856
   5.09830    -28.281585
   5.04085    -28.277981
   4.98340    -28.272343
   4.92596    -28.265210
   4.86851    -28.257095
   4.81106    -28.248592
   4.75361    -28.240264
   4.69617    -28.232977
   4.63872    -28.227797
   4.58127    -28.225941
   4.58127    -28.225941
   4.52711    -28.215376
   4.47295    -28.204546
   4.41878    -28.195464
   4.36462    -28.195772
   4.31046    -28.201946
   4.25630    -28.208852
   4.20214    -28.215604
   4.14797    -28.221951
   4.09381    -28.227748
   4.03965    -28.232916
   3.98549    -28.237430
   3.93133    -28.241008
   3.87716    -28.243654
   3.82300    -28.245194
   3.76884    -28.245742
   3.76884    -28.245742
   3.71356    -28.245883
   3.65828    -28.246334
   3.60300    -28.247188
   3.54772    -28.248435
   3.49244    -28.250096
   3.43716    -28.252332
   3.38189    -28.255090
   3.32661    -28.258492
   3.27133    -28.262488
   3.21605    -28.266957
   3.16077    -28.271875
   3.10549    -28.277157
   3.05021    -28.282467
   2.99493    -28.287667
   2.93965    -28.292555
   2.88437    -28.296531
   2.82910    -28.299337
   2.77382    -28.300348
   2.77382    -28.300348
   2.72083    -28.299676
   2.66785    -28.297772
   2.61486    -28.294841
   2.56188    -28.291185
   2.50889    -28.287047
   2.45591    -28.282701
   2.40292    -28.278419
   2.34994    -28.274176
   2.29695    -28.270125
   2.24397    -28.266266
   2.19098    -28.262588
   2.13800    -28.258878
   2.08502    -28.254980
   2.03203    -28.250329
   1.97905    -28.244593
   1.92606    -28.237239
   1.87308    -28.227842
   1.82009    -28.216686
   1.76711    -28.204110
   1.71412    -28.190581
   1.66114    -28.176408
   1.60815    -28.185674
   1.55517    -28.201661
   1.55517    -28.201661
   1.49714    -28.218694
   1.43911    -28.234865
   1.38108    -28.249880
   1.32305    -28.262981
   1.26501    -28.273465
   1.20698    -28.280380
   1.14895    -28.282856
   1.14895    -28.282855
   1.09424    -28.271228
   1.03953    -28.259006
   0.98482    -28.246238
   0.93010    -28.233005
   0.87539    -28.219387
   0.82068    -28.212800
   0.76597    -28.222863
   0.71126    -28.232713
   0.65654    -28.241991
   0.60183    -28.250723
   0.54712    -28.258892
   0.49241    -28.266455
   0.43770    -28.273350
   0.38298    -28.279547
   0.32827    -28.284995
   0.27356    -28.289530
   0.21885    -28.293393
   0.16414    -28.296422
   0.10942    -28.298599
   0.05471    -28.299910
   0.00000    -28.300348
 
# Band-Index    5
   0.00000    -28.300348
   0.05471    -28.298796
   0.10942    -28.294606
   0.16414    -28.288120
   0.21885    -28.280083
   0.27356    -28.270912
   0.32827    -28.260873
   0.38298    -28.250066
   0.43770    -28.238461
   0.49241    -28.226565
   0.54712    -28.214237
   0.60183    -28.201580
   0.65654    -28.188742
   0.71126    -28.176956
   0.76597    -28.191212
   0.82068    -28.205358
   0.87539    -28.202424
   0.93010    -28.191731
   0.98482    -28.180827
   1.03953    -28.169772
   1.09424    -28.158620
   1.14895    -28.147532
   1.14895    -28.147533
   1.20698    -28.147857
   1.26501    -28.148827
   1.32305    -28.150472
   1.38108    -28.152758
   1.43911    -28.155514
   1.49714    -28.159032
   1.55517    -28.163120
   1.55517    -28.163120
   1.60815    -28.167240
   1.66114    -28.171843
   1.71412    -28.176800
   1.76711    -28.182145
   1.82009    -28.187905
   1.87308    -28.193835
   1.92606    -28.200129
   1.97905    -28.206674
   2.03203    -28.213445
   2.08502    -28.220506
   2.13800    -28.227612
   2.19098    -28.234944
   2.24397    -28.242310
   2.29695    -28.249851
   2.34994    -28.257337
   2.40292    -28.264680
   2.45591    -28.271918
   2.50889    -28.278854
   2.56188    -28.285371
   2.61486    -28.291193
   2.66785    -28.295912
   2.72083    -28.299158
   2.77382    -28.300348
   2.77382    -28.300348
   2.82910    -28.299337
   2.88437    -28.296531
   2.93965    -28.292555
   2.99493    -28.287667
   3.05021    -28.282467
   3.10549    -28.277157
   3.16077    -28.271875
   3.21605    -28.266957
   3.27133    -28.262487
   3.32661    -28.258492
   3.38189    -28.255090
   3.43716    -28.252332
   3.49244    -28.250096
   3.54772    -28.248434
   3.60300    -28.247187
   3.65828    -28.246334
   3.71356    -28.245882
   3.76884    -28.245741
   3.76884    -28.245741
   3.82300    -28.244906
   3.87716    -28.242432
   3.93133    -28.238185
   3.98549    -28.232219
   4.03965    -28.224586
   4.09381    -28.215546
   4.14797    -28.205336
   4.20214    -28.194315
   4.25630    -28.182811
   4.31046    -28.171217
   4.36462    -28.174793
   4.41878    -28.179902
   4.47295    -28.174810
   4.52711    -28.167279
   4.58127    -28.159297
   4.58127    -28.159297
   4.63872    -28.158411
   4.69617    -28.156282
   4.75361    -28.153862
   4.81106    -28.151746
   4.86851    -28.150128
   4.92596    -28.149006
   4.98340    -28.148328
   5.04085    -28.147871
   5.09830    -28.147593
   5.15575    -28.147533
 
# Band-Index    6
   5.15575    -28.147533
   5.09830    -28.147593
   5.04085    -28.147871
   4.98340    -28.148328
   4.92596    -28.149006
   4.86851    -28.150128
   4.81106    -28.151745
   4.75361    -28.153862
   4.69617    -28.156282
   4.63872    -28.158411
   4.58127    -28.159296
   4.58127    -28.159296
   4.52711    -28.151397
   4.47295    -28.145302
   4.41878    -28.149580
   4.36462    -28.159896
   4.31046    -28.163114
   4.25630    -28.150114
   4.20214    -28.136767
   4.14797    -28.123387
   4.09381    -28.110281
   4.03965    -28.097778
   3.98549    -28.086291
   3.93133    -28.076542
   3.87716    -28.069731
   3.82300    -28.066434
   3.76884    -28.065596
   3.76884    -28.065596
   3.71356    -28.065541
   3.65828    -28.065401
   3.60300    -28.065188
   3.54772    -28.064762
   3.49244    -28.064109
   3.43716    -28.063173
   3.38189    -28.061644
   3.32661    -28.059703
   3.27133    -28.057307
   3.21605    -28.054417
   3.16077    -28.051110
   3.10549    -28.047514
   3.05021    -28.043633
   2.99493    -28.039744
   2.93965    -28.036044
   2.88437    -28.032782
   2.82910    -28.030492
   2.77382    -28.029642
   2.77382    -28.029642
   2.72083    -28.031002
   2.66785    -28.034558
   2.61486    -28.039472
   2.56188    -28.045080
   2.50889    -28.051056
   2.45591    -28.057245
   2.40292    -28.063531
   2.34994    -28.069833
   2.29695    -28.076105
   2.24397    -28.082215
   2.19098    -28.088225
   2.13800    -28.093960
   2.08502    -28.099617
   2.03203    -28.104950
   1.97905    -28.110030
   1.92606    -28.114816
   1.87308    -28.119193
   1.82009    -28.123318
   1.76711    -28.138051
   1.71412    -28.153625
   1.66114    -28.169633
   1.60815    -28.161851
   1.55517    -28.147256
   1.55517    -28.147257
   1.49714    -28.141263
   1.43911    -28.143237
   1.38108    -28.144795
   1.32305    -28.145979
   1.26501    -28.146823
   1.20698    -28.147290
   1.14895    -28.147532
   1.14895    -28.147532
   1.09424    -28.136385
   1.03953    -28.125291
   0.98482    -28.114441
   0.93010    -28.122721
   0.87539    -28.135874
   0.82068    -28.149119
   0.76597    -28.162378
   0.71126    -28.175615
   0.65654    -28.162705
   0.60183    -28.148412
   0.54712    -28.134269
   0.49241    -28.120415
   0.43770    -28.106816
   0.38298    -28.093705
   0.32827    -28.081077
   0.27356    -28.069095
   0.21885    -28.057900
   0.16414    -28.047707
   0.10942    -28.038889
   0.05471    -28.032272
   0.00000    -28.029642
 
# Band-Index    7
   0.00000    -28.029641
   0.05471    -28.029190
   0.10942    -28.027875
   0.16414    -28.025673
   0.21885    -28.022684
   0.27356    -28.018997
   0.32827    -28.015945
   0.38298    -28.020948
   0.43770    -28.026656
   0.49241    -28.033035
   0.54712    -28.040048
   0.60183    -28.047674
   0.65654    -28.055869
   0.71126    -28.064548
   0.76597    -28.073750
   0.82068    -28.083384
   0.87539    -28.093455
   0.93010    -28.103809
   0.98482    -28.109740
   1.03953    -28.097005
   1.09424    -28.084576
   1.14895    -28.072621
   1.14895    -28.072622
   1.20698    -28.074891
   1.26501    -28.081160
   1.32305    -28.090728
   1.38108    -28.102790
   1.43911    -28.116571
   1.49714    -28.131554
   1.55517    -28.138970
   1.55517    -28.138969
   1.60815    -28.136524
   1.66114    -28.133810
   1.71412    -28.130667
   1.76711    -28.127110
   1.82009    -28.123148
   1.87308    -28.109316
   1.92606    -28.096966
   1.97905    -28.087246
   2.03203    -28.080656
   2.08502    -28.076277
   2.13800    -28.072631
   2.19098    -28.069170
   2.24397    -28.065541
   2.29695    -28.061681
   2.34994    -28.057568
   2.40292    -28.053182
   2.45591    -28.048678
   2.50889    -28.044150
   2.56188    -28.039795
   2.61486    -28.035846
   2.66785    -28.032588
   2.72083    -28.030410
   2.77382    -28.029641
   2.77382    -28.029641
   2.82910    -28.030491
   2.88437    -28.032782
   2.93965    -28.036043
   2.99493    -28.039743
   3.05021    -28.043633
   3.10549    -28.047514
   3.16077    -28.051109
   3.21605    -28.054416
   3.27133    -28.057307
   3.32661    -28.059703
   3.38189    -28.061644
   3.43716    -28.063172
   3.49244    -28.064109
   3.54772    -28.064761
   3.60300    -28.065188
   3.65828    -28.065401
   3.71356    -28.065540
   3.76884    -28.065596
   3.76884    -28.065596
   3.82300    -28.066279
   3.87716    -28.068298
   3.93133    -28.071522
   3.98549    -28.075848
   4.03965    -28.081063
   4.09381    -28.087100
   4.14797    -28.093774
   4.20214    -28.100887
   4.25630    -28.108334
   4.31046    -28.116171
   4.36462    -28.124022
   4.41878    -28.131316
   4.47295    -28.133022
   4.52711    -28.125174
   4.58127    -28.116229
   4.58127    -28.116229
   4.63872    -28.115196
   4.69617    -28.112268
   4.75361    -28.107537
   4.81106    -28.101424
   4.86851    -28.094652
   4.92596    -28.087888
   4.98340    -28.081801
   5.04085    -28.076985
   5.09830    -28.073755
   5.15575    -28.072622
 
# Band-Index    8
   5.15575    -28.072619
   5.09830    -28.073752
   5.04085    -28.076982
   4.98340    -28.081798
   4.92596    -28.087886
   4.86851    -28.094650
   4.81106    -28.101422
   4.75361    -28.107535
   4.69617    -28.112266
   4.63872    -28.115194
   4.58127    -28.116227
   4.58127    -28.116227
   4.52711    -28.107730
   4.47295    -28.099956
   4.41878    -28.093048
   4.36462    -28.086982
   4.31046    -28.081687
   4.25630    -28.077149
   4.20214    -28.073302
   4.14797    -28.070080
   4.09381    -28.067373
   4.03965    -28.065081
   3.98549    -28.063163
   3.93133    -28.061185
   3.87716    -28.058688
   3.82300    -28.055857
   3.76884    -28.054539
   3.76884    -28.054539
   3.71356    -28.054224
   3.65828    -28.053675
   3.60300    -28.052754
   3.54772    -28.051482
   3.49244    -28.049965
   3.43716    -28.048169
   3.38189    -28.046073
   3.32661    -28.043963
   3.27133    -28.041803
   3.21605    -28.039639
   3.16077    -28.037557
   3.10549    -28.035761
   3.05021    -28.034013
   2.99493    -28.032496
   2.93965    -28.031283
   2.88437    -28.030368
   2.82910    -28.029821
   2.77382    -28.029633
   2.77382    -28.029633
   2.72083    -28.029214
   2.66785    -28.027966
   2.61486    -28.025843
   2.56188    -28.022919
   2.50889    -28.019166
   2.45591    -28.014649
   2.40292    -28.009331
   2.34994    -28.011780
   2.29695    -28.017028
   2.24397    -28.023378
   2.19098    -28.030844
   2.13800    -28.039108
   2.08502    -28.048087
   2.03203    -28.056885
   1.97905    -28.064163
   1.92606    -28.068975
   1.87308    -28.071636
   1.82009    -28.073122
   1.76711    -28.073936
   1.71412    -28.074358
   1.66114    -28.074475
   1.60815    -28.074403
   1.55517    -28.074218
   1.55517    -28.074218
   1.49714    -28.073936
   1.43911    -28.073671
   1.38108    -28.073370
   1.32305    -28.073021
   1.26501    -28.072812
   1.20698    -28.072645
   1.14895    -28.072619
   1.14895    -28.072618
   1.09424    -28.061108
   1.03953    -28.050175
   0.98482    -28.039805
   0.93010    -28.030116
   0.87539    -28.021176
   0.82068    -28.012923
   0.76597    -28.005664
   0.71126    -27.999340
   0.65654    -27.994047
   0.60183    -27.989633
   0.54712    -27.993906
   0.49241    -27.999398
   0.43770    -28.004747
   0.38298    -28.009964
   0.32827    -28.014731
   0.27356    -28.018992
   0.21885    -28.022678
   0.16414    -28.025667
   0.10942    -28.027870
   0.05471    -28.029184
   0.00000    -28.029633
 
# Band-Index    9
   0.00000    -28.001687
   0.05471    -28.002084
   0.10942    -28.003279
   0.16414    -28.005247
   0.21885    -28.008013
   0.27356    -28.011541
   0.32827    -28.014726
   0.38298    -28.009959
   0.43770    -28.004741
   0.49241    -27.999393
   0.54712    -27.993900
   0.60183    -27.988451
   0.65654    -27.983175
   0.71126    -27.978045
   0.76597    -27.973207
   0.82068    -27.968939
   0.87539    -27.965246
   0.93010    -27.962033
   0.98482    -27.959470
   1.03953    -27.957596
   1.09424    -27.956475
   1.14895    -27.956121
   1.14895    -27.956122
   1.20698    -27.956029
   1.26501    -27.955903
   1.32305    -27.955703
   1.38108    -27.955444
   1.43911    -27.955140
   1.49714    -27.954848
   1.55517    -27.954609
   1.55517    -27.954610
   1.60815    -27.954352
   1.66114    -27.954300
   1.71412    -27.954341
   1.76711    -27.954509
   1.82009    -27.954907
   1.87308    -27.955500
   1.92606    -27.956350
   1.97905    -27.957428
   2.03203    -27.962716
   2.08502    -27.969455
   2.13800    -27.976409
   2.19098    -27.983423
   2.24397    -27.990368
   2.29695    -27.997113
   2.34994    -28.003497
   2.40292    -28.007670
   2.45591    -28.004569
   2.50889    -28.002589
   2.56188    -28.001518
   2.61486    -28.001155
   2.66785    -28.001266
   2.72083    -28.001544
   2.77382    -28.001687
   2.77382    -28.001687
   2.82910    -28.000966
   2.88437    -27.999048
   2.93965    -27.996536
   2.99493    -27.993620
   3.05021    -27.990729
   3.10549    -27.987923
   3.16077    -27.985309
   3.21605    -27.982972
   3.27133    -27.980942
   3.32661    -27.979156
   3.38189    -27.977717
   3.43716    -27.976583
   3.49244    -27.975682
   3.54772    -27.975064
   3.60300    -27.974631
   3.65828    -27.974336
   3.71356    -27.974171
   3.76884    -27.974132
   3.76884    -27.974132
   3.82300    -27.973730
   3.87716    -27.972590
   3.93133    -27.970772
   3.98549    -27.968493
   4.03965    -27.965761
   4.09381    -27.962830
   4.14797    -27.959757
   4.20214    -27.956637
   4.25630    -27.953531
   4.31046    -27.950557
   4.36462    -27.947737
   4.41878    -27.945107
   4.47295    -27.942660
   4.52711    -27.940559
   4.58127    -27.938850
   4.58127    -27.938850
   4.63872    -27.939181
   4.69617    -27.940207
   4.75361    -27.941859
   4.81106    -27.943984
   4.86851    -27.946509
   4.92596    -27.949226
   4.98340    -27.951837
   5.04085    -27.954082
   5.09830    -27.955526
   5.15575    -27.956122
 
# Band-Index   10
   5.15575    -27.956117
   5.09830    -27.955521
   5.04085    -27.954077
   4.98340    -27.951832
   4.92596    -27.949221
   4.86851    -27.946504
   4.81106    -27.943980
   4.75361    -27.941854
   4.69617    -27.940203
   4.63872    -27.939177
   4.58127    -27.938845
   4.58127    -27.938845
   4.52711    -27.937515
   4.47295    -27.936656
   4.41878    -27.936408
   4.36462    -27.936801
   4.31046    -27.937882
   4.25630    -27.939696
   4.20214    -27.942299
   4.14797    -27.945698
   4.09381    -27.949821
   4.03965    -27.954548
   3.98549    -27.959778
   3.93133    -27.964913
   3.87716    -27.969566
   3.82300    -27.972892
   3.76884    -27.974131
   3.76884    -27.974131
   3.71356    -27.974171
   3.65828    -27.974335
   3.60300    -27.974631
   3.54772    -27.975063
   3.49244    -27.975681
   3.43716    -27.976582
   3.38189    -27.977717
   3.32661    -27.979156
   3.27133    -27.980941
   3.21605    -27.982971
   3.16077    -27.985309
   3.10549    -27.987923
   3.05021    -27.990729
   2.99493    -27.993620
   2.93965    -27.996535
   2.88437    -27.999048
   2.82910    -28.000966
   2.77382    -28.001687
   2.77382    -28.001687
   2.72083    -28.000530
   2.66785    -27.997632
   2.61486    -27.993866
   2.56188    -27.989697
   2.50889    -27.985474
   2.45591    -27.981378
   2.40292    -27.977503
   2.34994    -27.973896
   2.29695    -27.970591
   2.24397    -27.967535
   2.19098    -27.964880
   2.13800    -27.962524
   2.08502    -27.960539
   2.03203    -27.958806
   1.97905    -27.956371
   1.92606    -27.950594
   1.87308    -27.945446
   1.82009    -27.941134
   1.76711    -27.937821
   1.71412    -27.935550
   1.66114    -27.934373
   1.60815    -27.934220
   1.55517    -27.935127
   1.55517    -27.935127
   1.49714    -27.937247
   1.43911    -27.940403
   1.38108    -27.944280
   1.32305    -27.948435
   1.26501    -27.952274
   1.20698    -27.954986
   1.14895    -27.956117
   1.14895    -27.956116
   1.09424    -27.956470
   1.03953    -27.957591
   0.98482    -27.959465
   0.93010    -27.962028
   0.87539    -27.965240
   0.82068    -27.968934
   0.76597    -27.973202
   0.71126    -27.978039
   0.65654    -27.983170
   0.60183    -27.988446
   0.54712    -27.986306
   0.49241    -27.984047
   0.43770    -27.982824
   0.38298    -27.982766
   0.32827    -27.983703
   0.27356    -27.985628
   0.21885    -27.988524
   0.16414    -27.992214
   0.10942    -27.996355
   0.05471    -27.999998
   0.00000    -28.001687
 
# Band-Index   11
   0.00000    -15.180243
   0.05471    -15.168990
   0.10942    -15.135204
   0.16414    -15.078902
   0.21885    -15.000185
   0.27356    -14.899066
   0.32827    -14.775638
   0.38298    -14.630049
   0.43770    -14.462395
   0.49241    -14.272844
   0.54712    -14.061623
   0.60183    -13.828928
   0.65654    -13.575036
   0.71126    -13.300288
   0.76597    -13.005009
   0.82068    -12.689614
   0.87539    -12.354604
   0.93010    -12.000457
   0.98482    -11.627776
   1.03953    -11.237247
   1.09424    -10.829558
   1.14895    -10.405524
   1.14895    -10.405524
   1.20698    -10.412868
   1.26501    -10.436007
   1.32305    -10.478065
   1.38108    -10.543904
   1.43911    -10.639304
   1.49714    -10.769732
   1.55517    -10.938673
   1.55517    -10.938674
   1.60815    -11.126685
   1.66114    -11.344172
   1.71412    -11.586182
   1.76711    -11.846473
   1.82009    -12.118527
   1.87308    -12.396194
   1.92606    -12.674067
   1.97905    -12.947652
   2.03203    -13.213304
   2.08502    -13.468068
   2.13800    -13.709633
   2.19098    -13.936190
   2.24397    -14.146257
   2.29695    -14.338714
   2.34994    -14.512690
   2.40292    -14.667455
   2.45591    -14.802466
   2.50889    -14.917333
   2.56188    -15.011692
   2.61486    -15.085301
   2.66785    -15.138021
   2.72083    -15.169691
   2.77382    -15.180243
   2.77382    -15.180243
   2.82910    -15.168758
   2.88437    -15.134293
   2.93965    -15.076960
   2.99493    -14.996970
   3.05021    -14.894564
   3.10549    -14.770150
   3.16077    -14.624334
   3.21605    -14.457887
   3.27133    -14.271959
   3.32661    -14.068230
   3.38189    -13.849064
   3.43716    -13.618039
   3.49244    -13.380586
   3.54772    -13.144987
   3.60300    -12.924029
   3.65828    -12.736609
   3.71356    -12.607441
   3.76884    -12.560809
   3.76884    -12.560809
   3.82300    -12.549576
   3.87716    -12.515910
   3.93133    -12.459894
   3.98549    -12.381676
   4.03965    -12.281478
   4.09381    -12.159623
   4.14797    -12.016544
   4.20214    -11.852836
   4.25630    -11.669313
   4.31046    -11.467070
   4.36462    -11.247605
   4.41878    -11.012924
   4.47295    -10.765770
   4.52711    -10.509911
   4.58127    -10.250488
   4.58127    -10.250488
   4.63872    -10.254568
   4.69617    -10.266318
   4.75361    -10.284354
   4.81106    -10.306644
   4.86851    -10.330816
   4.92596    -10.354454
   4.98340    -10.375351
   5.04085    -10.391652
   5.09830    -10.401987
   5.15575    -10.405524
 
# Band-Index   12
   5.15575    -10.405512
   5.09830    -10.401975
   5.04085    -10.391640
   4.98340    -10.375339
   4.92596    -10.354443
   4.86851    -10.330805
   4.81106    -10.306634
   4.75361    -10.284345
   4.69617    -10.266310
   4.63872    -10.254560
   4.58127    -10.250482
   4.58127    -10.250482
   4.52711     -9.994384
   4.47295     -9.750475
   4.41878     -9.529356
   4.36462     -9.342027
   4.31046     -9.197227
   4.25630     -9.098392
   4.20214     -9.042292
   4.14797     -9.020643
   4.09381     -9.023144
   4.03965     -9.040007
   3.98549     -9.063192
   3.93133     -9.086654
   3.87716     -9.106144
   3.82300     -9.118877
   3.76884     -9.123289
   3.76884     -9.123289
   3.71356     -9.052420
   3.65828     -8.850567
   3.60300     -8.542194
   3.54772     -8.152368
   3.49244     -7.700397
   3.43716     -7.199707
   3.38189     -6.659444
   3.32661     -6.086092
   3.27133     -5.484669
   3.21605     -4.859450
   3.16077     -4.214587
   3.10549     -3.554741
   3.05021     -2.885774
   2.99493     -2.216201
   2.93965     -1.560490
   2.88437     -0.947980
   2.82910     -0.450452
   2.77382     -0.236574
   2.77382     -0.236574
   2.72083     -0.420222
   2.66785     -0.852986
   2.61486     -1.387550
   2.56188     -1.957023
   2.50889     -2.533952
   2.45591     -3.105599
   2.40292     -3.665163
   2.34994     -4.208668
   2.29695     -4.733597
   2.24397     -5.238296
   2.19098     -5.721593
   2.13800     -6.182661
   2.08502     -6.620909
   2.03203     -7.035913
   1.97905     -7.427368
   1.92606     -7.795025
   1.87308     -8.138716
   1.82009     -8.458317
   1.76711     -8.753731
   1.71412     -9.024915
   1.66114     -9.271814
   1.60815     -9.494397
   1.55517     -9.692658
   1.55517     -9.692660
   1.49714     -9.881892
   1.43911    -10.041962
   1.38108    -10.172887
   1.32305    -10.274686
   1.26501    -10.347380
   1.20698    -10.390989
   1.14895    -10.405512
   1.14895    -10.405512
   1.09424     -9.966021
   1.03953     -9.511976
   0.98482     -9.044399
   0.93010     -8.564380
   0.87539     -8.072999
   0.82068     -7.571412
   0.76597     -7.060797
   0.71126     -6.542294
   0.65654     -6.017061
   0.60183     -5.486238
   0.54712     -4.950912
   0.49241     -4.412222
   0.43770     -3.871378
   0.38298     -3.329801
   0.32827     -2.789416
   0.27356     -2.253201
   0.21885     -1.726339
   0.16414     -1.219117
   0.10942     -0.754469
   0.05471     -0.388133
   0.00000     -0.236576
 
# Band-Index   13
   0.00000     -0.236523
   0.05471     -0.292492
   0.10942     -0.447146
   0.16414     -0.671472
   0.21885     -0.937028
   0.27356     -1.222861
   0.32827     -1.515053
   0.38298     -1.804573
   0.43770     -2.085456
   0.49241     -2.353633
   0.54712     -2.606235
   0.60183     -2.841182
   0.65654     -3.056924
   0.71126     -3.252279
   0.76597     -3.426339
   0.82068     -3.578392
   0.87539     -3.707878
   0.93010     -3.814358
   0.98482     -3.897497
   1.03953     -3.957051
   1.09424     -3.992851
   1.14895     -4.004796
   1.14895     -4.004795
   1.20698     -4.081213
   1.26501     -4.286238
   1.32305     -4.566672
   1.38108     -4.869962
   1.43911     -5.156011
   1.49714     -5.397165
   1.55517     -5.575845
   1.55517     -5.575844
   1.60815     -5.676539
   1.66114     -5.715667
   1.71412     -5.695100
   1.76711     -5.618986
   1.82009     -5.492536
   1.87308     -5.321107
   1.92606     -5.109734
   1.97905     -4.862973
   2.03203     -4.584903
   2.08502     -4.279239
   2.13800     -3.949488
   2.19098     -3.599127
   2.24397     -3.231826
   2.29695     -2.851687
   2.34994     -2.463553
   2.40292     -2.073314
   2.45591     -1.688459
   2.50889     -1.318674
   2.56188     -0.976534
   2.61486     -0.678000
   2.66785     -0.442255
   2.72083     -0.289590
   2.77382     -0.236520
   2.77382     -0.236520
   2.82910     -0.260688
   2.88437     -0.329724
   2.93965     -0.434801
   2.99493     -0.565039
   3.05021     -0.710203
   3.10549     -0.861895
   3.16077     -1.013712
   3.21605     -1.160930
   3.27133     -1.300110
   3.32661     -1.428762
   3.38189     -1.545078
   3.43716     -1.647752
   3.49244     -1.735836
   3.54772     -1.808649
   3.60300     -1.865707
   3.65828     -1.906677
   3.71356     -1.931343
   3.76884     -1.939579
   3.76884     -1.939579
   3.82300     -2.061172
   3.87716     -2.373994
   3.93133     -2.788020
   3.98549     -3.239789
   4.03965     -3.692180
   4.09381     -4.121564
   4.14797     -4.510034
   4.20214     -4.841957
   4.25630     -5.103491
   4.31046     -5.284260
   4.36462     -5.379955
   4.41878     -5.393574
   4.47295     -5.334002
   4.52711     -5.212917
   4.58127     -5.042081
   4.58127     -5.042081
   4.63872     -5.021126
   4.69617     -4.959493
   4.75361     -4.860854
   4.81106     -4.731391
   4.86851     -4.579929
   4.92596     -4.418277
   4.98340     -4.261594
   5.04085     -4.128102
   5.09830     -4.037205
   5.15575     -4.004796
 
# Band-Index   14
   5.15575     -4.004771
   5.09830     -4.037182
   5.04085     -4.128082
   4.98340     -4.261577
   4.92596     -4.418263
   4.86851     -4.579916
   4.81106     -4.731380
   4.75361     -4.860845
   4.69617     -4.959485
   4.63872     -5.021121
   4.58127     -5.042077
   4.58127     -5.042077
   4.52711     -4.832008
   4.47295     -4.591763
   4.41878     -4.329249
   4.36462     -4.051681
   4.31046     -3.765999
   4.25630     -3.479191
   4.20214     -3.198421
   4.14797     -2.931063
   4.09381     -2.684452
   4.03965     -2.465457
   3.98549     -2.279939
   3.93133     -2.132349
   3.87716     -2.025568
   3.82300     -1.961104
   3.76884     -1.939570
   3.76884     -1.939570
   3.71356     -1.931334
   3.65828     -1.906668
   3.60300     -1.865698
   3.54772     -1.808640
   3.49244     -1.735827
   3.43716     -1.647743
   3.38189     -1.545069
   3.32661     -1.428753
   3.27133     -1.300101
   3.21605     -1.160921
   3.16077     -1.013703
   3.10549     -0.861886
   3.05021     -0.710194
   2.99493     -0.565030
   2.93965     -0.434792
   2.88437     -0.329716
   2.82910     -0.260681
   2.77382     -0.236514
   2.77382     -0.236514
   2.72083     -0.243447
   2.66785     -0.264447
   2.61486     -0.300115
   2.56188     -0.351356
   2.50889     -0.419228
   2.45591     -0.504747
   2.40292     -0.608642
   2.34994     -0.731167
   2.29695     -0.871931
   2.24397     -1.029816
   2.19098     -1.203009
   2.13800     -1.389076
   2.08502     -1.585153
   2.03203     -1.788137
   1.97905     -1.994859
   1.92606     -2.202227
   1.87308     -2.407339
   1.82009     -2.607534
   1.76711     -2.800398
   1.71412     -2.983819
   1.66114     -3.155948
   1.60815     -3.315192
   1.55517     -3.460182
   1.55517     -3.460178
   1.49714     -3.601254
   1.43911     -3.722585
   1.38108     -3.823161
   1.32305     -3.902180
   1.26501     -3.959038
   1.20698     -3.993316
   1.14895     -4.004770
   1.14895     -4.004772
   1.09424     -3.992826
   1.03953     -3.957026
   0.98482     -3.897472
   0.93010     -3.814333
   0.87539     -3.707852
   0.82068     -3.578364
   0.76597     -3.426310
   0.71126     -3.252249
   0.65654     -3.056895
   0.60183     -2.841152
   0.54712     -2.606203
   0.49241     -2.353602
   0.43770     -2.085424
   0.38298     -1.804541
   0.32827     -1.515019
   0.27356     -1.222827
   0.21885     -0.936992
   0.16414     -0.671430
   0.10942     -0.447106
   0.05471     -0.292452
   0.00000     -0.236516
 
# Band-Index   15
   0.00000      1.749682
   0.05471      1.896421
   0.10942      2.246293
   0.16414      2.676584
   0.21885      2.544254
   0.27356      2.330092
   0.32827      2.109936
   0.38298      1.892745
   0.43770      1.684826
   0.49241      1.490656
   0.54712      1.313453
   0.60183      1.155590
   0.65654      1.018835
   0.71126      0.904550
   0.76597      0.813814
   0.82068      0.747520
   0.87539      0.706417
   0.93010      0.691161
   0.98482      0.702346
   1.03953      0.740508
   1.09424      0.806151
   1.14895      0.899718
   1.14895      0.899720
   1.20698      0.910580
   1.26501      0.943078
   1.32305      0.997025
   1.38108      1.072018
   1.43911      1.167490
   1.49714      1.282626
   1.55517      1.416294
   1.55517      1.416292
   1.60815      1.553226
   1.66114      1.702751
   1.71412      1.862763
   1.76711      2.030452
   1.82009      2.202065
   1.87308      2.372628
   1.92606      2.535689
   1.97905      2.683289
   2.03203      2.806479
   2.08502      2.896782
   2.13800      2.948631
   2.19098      2.961439
   2.24397      2.939875
   2.29695      2.891789
   2.34994      2.825611
   2.40292      2.748263
   2.45591      2.663918
   2.50889      2.572697
   2.56188      2.467864
   2.61486      2.330005
   2.66785      2.127811
   2.72083      1.879619
   2.77382      1.749680
   2.77382      1.749680
   2.82910      1.886126
   2.88437      2.102896
   2.93965      2.185519
   2.99493      2.145264
   3.05021      2.046291
   3.10549      1.923116
   3.16077      1.792332
   3.21605      1.662742
   3.27133      1.539444
   3.32661      1.425526
   3.38189      1.322889
   3.43716      1.232720
   3.49244      1.155761
   3.54772      1.092449
   3.60300      1.043037
   3.65828      1.007677
   3.71356      0.986436
   3.76884      0.979353
   3.76884      0.979353
   3.82300      1.095791
   3.87716      1.389788
   3.93133      1.762985
   3.98549      2.144106
   4.03965      2.497299
   4.09381      2.813958
   4.14797      3.101609
   4.20214      3.372478
   4.25630      3.637651
   4.31046      3.905294
   4.36462      4.181315
   4.41878      4.466899
   4.47295      4.713600
   4.52711      4.990657
   4.58127      5.266857
   4.58127      5.266857
   4.63872      4.672789
   4.69617      4.024556
   4.75361      3.409479
   4.81106      2.835367
   4.86851      2.310638
   4.92596      1.845963
   4.98340      1.455199
   5.04085      1.155439
   5.09830      0.965177
   5.15575      0.899716
 
# Band-Index   16
   5.15575      0.899743
   5.09830      0.965187
   5.04085      1.155449
   4.98340      1.455220
   4.92596      1.845968
   4.86851      2.310642
   4.81106      2.835378
   4.75361      3.409519
   4.69617      4.025677
   4.63872      4.687527
   4.58127      5.398001
   4.58127      5.398001
   4.52711      5.099041
   4.47295      4.776017
   4.41878      4.471788
   4.36462      4.255878
   4.31046      4.081815
   4.25630      3.947866
   4.20214      3.856916
   4.14797      3.811260
   4.09381      3.811896
   4.03965      3.857114
   3.98549      3.940815
   3.93133      4.050207
   3.87716      4.163914
   3.82300      4.252448
   3.76884      4.286300
   3.76884      4.286300
   3.71356      4.291437
   3.65828      4.306159
   3.60300      4.328319
   3.54772      4.354181
   3.49244      4.378252
   3.43716      4.393157
   3.38189      4.389913
   3.32661      4.358924
   3.27133      4.292042
   3.21605      4.185239
   3.16077      4.040674
   3.10549      3.866818
   3.05021      3.676827
   2.99493      3.486398
   2.93965      3.312300
   2.88437      3.171357
   2.82910      3.079066
   2.77382      3.046773
   2.77382      3.046773
   2.72083      3.058500
   2.66785      3.093509
   2.61486      3.151748
   2.56188      3.233135
   2.50889      3.337466
   2.45591      3.464667
   2.40292      3.614500
   2.34994      3.786751
   2.29695      3.981138
   2.24397      4.197384
   2.19098      4.435128
   2.13800      4.694060
   2.08502      4.973734
   2.03203      5.273735
   1.97905      5.593580
   1.92606      5.932775
   1.87308      6.291118
   1.82009      6.669244
   1.76711      7.068778
   1.71412      7.457502
   1.66114      7.332397
   1.60815      6.043917
   1.55517      5.027381
   1.55517      4.841477
   1.49714      4.010093
   1.43911      3.226834
   1.38108      2.507173
   1.32305      1.874253
   1.26501      1.362930
   1.20698      1.021325
   1.14895      0.899729
   1.14895      0.899731
   1.09424      1.021604
   1.03953      1.172097
   0.98482      1.351330
   0.93010      1.559235
   0.87539      1.795314
   0.82068      2.058510
   0.76597      2.346768
   0.71126      2.656440
   0.65654      2.981115
   0.60183      3.309478
   0.54712      3.621508
   0.49241      3.882407
   0.43770      4.038754
   0.38298      4.033746
   0.32827      3.850210
   0.27356      3.526217
   0.21885      3.118610
   0.16414      2.739954
   0.10942      2.901022
   0.05471      3.008684
   0.00000      3.046771
 
# Band-Index   17
   0.00000      3.046774
   0.05471      3.116472
   0.10942      3.312326
   0.16414      3.605038
   0.21885      3.965771
   0.27356      4.373011
   0.32827      4.812252
   0.38298      5.273932
   0.43770      5.754105
   0.49241      6.250110
   0.54712      6.736883
   0.60183      7.255657
   0.65654      7.764706
   0.71126      8.254597
   0.76597      8.762347
   0.82068      9.266193
   0.87539      9.763395
   0.93010     10.302667
   0.98482     10.785895
   1.03953     11.193823
   1.09424     11.545326
   1.14895     11.888496
   1.14895     11.936236
   1.20698     11.731467
   1.26501     11.350150
   1.32305     10.964191
   1.38108     10.434439
   1.43911      9.928652
   1.49714      9.417843
   1.55517      8.875638
   1.55517      9.018201
   1.60815      8.601724
   1.66114      8.204044
   1.71412      7.816485
   1.76711      7.470491
   1.82009      7.134309
   1.87308      6.723539
   1.92606      6.332552
   1.97905      5.962479
   2.03203      5.613360
   2.08502      5.285519
   2.13800      4.979317
   2.19098      4.694709
   2.24397      4.431969
   2.29695      4.191026
   2.34994      3.971878
   2.40292      3.774390
   2.45591      3.598511
   2.50889      3.444181
   2.56188      3.311172
   2.61486      3.201869
   2.66785      3.118317
   2.72083      3.065346
   2.77382      3.046794
   2.77382      3.046794
   2.82910      3.079418
   2.88437      3.171378
   2.93965      3.312313
   2.99493      3.486414
   3.05021      3.676838
   3.10549      3.866832
   3.16077      4.040719
   3.21605      4.185285
   3.27133      4.292080
   3.32661      4.358951
   3.38189      4.389933
   3.43716      4.393171
   3.49244      4.378262
   3.54772      4.354188
   3.60300      4.328320
   3.65828      4.306167
   3.71356      4.291441
   3.76884      4.286302
   3.76884      4.286302
   3.82300      4.329853
   3.87716      4.464187
   3.93133      4.698501
   3.98549      5.042011
   4.03965      5.495747
   4.09381      6.046125
   4.14797      6.678120
   4.20214      7.322405
   4.25630      7.744280
   4.31046      7.444143
   4.36462      6.869426
   4.41878      6.459799
   4.47295      6.080300
   4.52711      5.724148
   4.58127      5.454682
   4.58127      5.454682
   4.63872      6.074399
   4.69617      6.799703
   4.75361      7.543311
   4.81106      8.297160
   4.86851      9.051447
   4.92596      9.789324
   4.98340     10.501754
   5.04085     11.136329
   5.09830     11.622257
   5.15575     11.939544
 
# Band-Index   18
   5.15575     12.032712
   5.09830     12.130300
   5.04085     12.230994
   4.98340     12.242250
   4.92596     12.232680
   4.86851     12.373870
   4.81106     12.618870
   4.75361     12.900885
   4.69617     12.739028
   4.63872     11.995210
   4.58127     10.324389
   4.58127     10.324389
   4.52711     11.259021
   4.47295     11.568749
   4.41878     10.937680
   4.36462     10.060192
   4.31046      9.256019
   4.25630      8.724897
   4.20214      8.978809
   4.14797      9.416267
   4.09381      9.483159
   4.03965      9.393260
   3.98549      9.040625
   3.93133      8.623390
   3.87716      8.245826
   3.82300      8.035365
   3.76884      7.932638
   3.76884      7.932638
   3.71356      7.997255
   3.65828      8.084235
   3.60300      8.204324
   3.54772      8.363886
   3.49244      8.465497
   3.43716      8.420142
   3.38189      8.163949
   3.32661      7.711692
   3.27133      7.150546
   3.21605      6.547576
   3.16077      5.941722
   3.10549      5.329651
   3.05021      4.748745
   2.99493      4.183443
   2.93965      3.667422
   2.88437      3.280325
   2.82910      3.091924
   2.77382      3.047425
   2.77382      3.047425
   2.72083      3.115762
   2.66785      3.344196
   2.61486      3.742790
   2.56188      4.250607
   2.50889      4.787217
   2.45591      5.285750
   2.40292      5.687394
   2.34994      5.948166
   2.29695      6.069585
   2.24397      6.089125
   2.19098      6.080957
   2.13800      6.093106
   2.08502      6.136593
   2.03203      6.232286
   1.97905      6.398021
   1.92606      6.622992
   1.87308      6.852875
   1.82009      7.142904
   1.76711      7.559738
   1.71412      7.942516
   1.66114      8.206377
   1.60815      8.622740
   1.55517      9.118408
   1.55517      9.187718
   1.49714      9.727841
   1.43911     10.261925
   1.38108     10.793345
   1.32305     11.334870
   1.26501     11.699001
   1.20698     11.932667
   1.14895     11.969005
   1.14895     11.981433
   1.09424     11.627747
   1.03953     11.264770
   0.98482     10.827692
   0.93010     10.431460
   0.87539      9.764914
   0.82068      9.272183
   0.76597      8.764991
   0.71126      8.259312
   0.65654      7.863085
   0.60183      7.294303
   0.54712      6.741748
   0.49241      6.262172
   0.43770      5.755239
   0.38298      5.279638
   0.32827      4.812268
   0.27356      4.382382
   0.21885      3.965801
   0.16414      3.605040
   0.10942      3.313185
   0.05471      3.117866
   0.00000      3.046928
