#K-Path(1/A) Energy-Level(eV)
# NKPTS & NBANDS:  94  18
# Band-Index    1
   0.00000    -28.136290
   0.05468    -28.136755
   0.10937    -28.137961
   0.16405    -28.139512
   0.21874    -28.141049
   0.27342    -28.142320
   0.32810    -28.143577
   0.38279    -28.145799
   0.43747    -28.148190
   0.49215    -28.150646
   0.54684    -28.153064
   0.60152    -28.155493
   0.65621    -28.157780
   0.71089    -28.159908
   0.76557    -28.161834
   0.82026    -28.163493
   0.87494    -28.164904
   0.92962    -28.166024
   0.98431    -28.166857
   1.03899    -28.167350
   1.09368    -28.167510
   1.09368    -28.167510
   1.15812    -28.168453
   1.22257    -28.170932
   1.28701    -28.174154
   1.35146    -28.177366
   1.41590    -28.180080
   1.48035    -28.181991
   1.48035    -28.181991
   1.53308    -28.182824
   1.58581    -28.182923
   1.63853    -28.182344
   1.69126    -28.181112
   1.74399    -28.179240
   1.79672    -28.176862
   1.84945    -28.174000
   1.90217    -28.170766
   1.95490    -28.167276
   2.00763    -28.163647
   2.06036    -28.161289
   2.11309    -28.159416
   2.16581    -28.157303
   2.21854    -28.154942
   2.27127    -28.152349
   2.32400    -28.149574
   2.37673    -28.146678
   2.42946    -28.143779
   2.48218    -28.141008
   2.53491    -28.138603
   2.58764    -28.136909
   2.64037    -28.136290
   2.64037    -28.136290
   2.69608    -28.136828
   2.75180    -28.138300
   2.80751    -28.140377
   2.86323    -28.142736
   2.91894    -28.145172
   2.97466    -28.147518
   3.03037    -28.149695
   3.08609    -28.151606
   3.14180    -28.153303
   3.19752    -28.154721
   3.25323    -28.155880
   3.30895    -28.156802
   3.36466    -28.157495
   3.42037    -28.157997
   3.47609    -28.158362
   3.53180    -28.158583
   3.58752    -28.158649
   3.58752    -28.158649
   3.64276    -28.159606
   3.69800    -28.162098
   3.75324    -28.165384
   3.80848    -28.168862
   3.86371    -28.172133
   3.91895    -28.175021
   3.97419    -28.177349
   4.02943    -28.179131
   4.08467    -28.180332
   4.13991    -28.181005
   4.19515    -28.181166
   4.25039    -28.180874
   4.30563    -28.180204
   4.36087    -28.179195
   4.36087    -28.179195
   4.42162    -28.178891
   4.48238    -28.178036
   4.54314    -28.176688
   4.60390    -28.174932
   4.66466    -28.172948
   4.72542    -28.170943
   4.78618    -28.169175
   4.84694    -28.167954
   4.90770    -28.167510
 
# Band-Index    2
   4.90770    -28.167508
   4.84694    -28.167952
   4.78618    -28.169174
   4.72542    -28.170941
   4.66466    -28.172945
   4.60390    -28.174930
   4.54314    -28.176686
   4.48238    -28.178033
   4.42162    -28.178889
   4.36087    -28.179192
   4.36087    -28.179192
   4.30563    -28.177877
   4.25039    -28.176351
   4.19515    -28.174655
   4.13991    -28.172820
   4.08467    -28.170904
   4.02943    -28.168956
   3.97419    -28.167006
   3.91895    -28.165122
   3.86371    -28.163347
   3.80848    -28.161783
   3.75324    -28.160451
   3.69800    -28.159476
   3.64276    -28.158851
   3.58752    -28.158648
   3.58752    -28.158648
   3.53180    -28.158583
   3.47609    -28.158362
   3.42037    -28.157996
   3.36466    -28.157495
   3.30895    -28.156801
   3.25323    -28.155879
   3.19752    -28.154720
   3.14180    -28.153303
   3.08609    -28.151606
   3.03037    -28.149695
   2.97466    -28.147518
   2.91894    -28.145171
   2.86323    -28.142736
   2.80751    -28.140377
   2.75180    -28.138299
   2.69608    -28.136828
   2.64037    -28.136290
   2.64037    -28.136290
   2.58764    -28.136500
   2.53491    -28.137136
   2.48218    -28.138170
   2.42946    -28.139648
   2.37673    -28.141540
   2.32400    -28.143811
   2.27127    -28.146487
   2.21854    -28.149498
   2.16581    -28.152784
   2.11309    -28.156288
   2.06036    -28.159929
   2.00763    -28.162914
   1.95490    -28.164286
   1.90217    -28.165401
   1.84945    -28.166333
   1.79672    -28.167038
   1.74399    -28.167554
   1.69126    -28.167912
   1.63853    -28.168096
   1.58581    -28.168200
   1.53308    -28.168234
   1.48035    -28.168182
   1.48035    -28.168181
   1.41590    -28.168039
   1.35146    -28.167895
   1.28701    -28.167751
   1.22257    -28.167626
   1.15812    -28.167544
   1.09368    -28.167508
   1.09368    -28.167508
   1.03899    -28.167348
   0.98431    -28.166855
   0.92962    -28.166022
   0.87494    -28.164902
   0.82026    -28.163491
   0.76557    -28.161832
   0.71089    -28.159906
   0.65621    -28.157779
   0.60152    -28.155491
   0.54684    -28.153063
   0.49215    -28.150644
   0.43747    -28.148188
   0.38279    -28.145798
   0.32810    -28.143575
   0.27342    -28.141512
   0.21874    -28.139717
   0.16405    -28.138260
   0.10937    -28.137187
   0.05468    -28.136515
   0.00000    -28.136290
 
# Band-Index    3
   0.00000    -28.136287
   0.05468    -28.136513
   0.10937    -28.137185
   0.16405    -28.138258
   0.21874    -28.139715
   0.27342    -28.141511
   0.32810    -28.143174
   0.38279    -28.143494
   0.43747    -28.143203
   0.49215    -28.142262
   0.54684    -28.140669
   0.60152    -28.138412
   0.65621    -28.135454
   0.71089    -28.131843
   0.76557    -28.127546
   0.82026    -28.122582
   0.87494    -28.116982
   0.92962    -28.110765
   0.98431    -28.103975
   1.03899    -28.096616
   1.09368    -28.088723
   1.09368    -28.088723
   1.15812    -28.088654
   1.22257    -28.088480
   1.28701    -28.088168
   1.35146    -28.087763
   1.41590    -28.087372
   1.48035    -28.087077
   1.48035    -28.087077
   1.53308    -28.086953
   1.58581    -28.087024
   1.63853    -28.087429
   1.69126    -28.088322
   1.74399    -28.089866
   1.79672    -28.092336
   1.84945    -28.095844
   1.90217    -28.100309
   1.95490    -28.105421
   2.00763    -28.110764
   2.06036    -28.115929
   2.11309    -28.120709
   2.16581    -28.124913
   2.21854    -28.128460
   2.27127    -28.131275
   2.32400    -28.133372
   2.37673    -28.134826
   2.42946    -28.135718
   2.48218    -28.136181
   2.53491    -28.136317
   2.58764    -28.136307
   2.64037    -28.136287
   2.64037    -28.136287
   2.69608    -28.136157
   2.75180    -28.135773
   2.80751    -28.135139
   2.86323    -28.134271
   2.91894    -28.133229
   2.97466    -28.132027
   3.03037    -28.130729
   3.08609    -28.129334
   3.14180    -28.127910
   3.19752    -28.126501
   3.25323    -28.125153
   3.30895    -28.123875
   3.36466    -28.122761
   3.42037    -28.121875
   3.47609    -28.121212
   3.53180    -28.120808
   3.58752    -28.120671
   3.58752    -28.120671
   3.64276    -28.119488
   3.69800    -28.116365
   3.75324    -28.112086
   3.80848    -28.107346
   3.86371    -28.102505
   3.91895    -28.097730
   3.97419    -28.092980
   4.02943    -28.088186
   4.08467    -28.083189
   4.13991    -28.077896
   4.19515    -28.072208
   4.25039    -28.066027
   4.30563    -28.059341
   4.36087    -28.052141
   4.36087    -28.052141
   4.42162    -28.053625
   4.48238    -28.057626
   4.54314    -28.063135
   4.60390    -28.069236
   4.66466    -28.075270
   4.72542    -28.080681
   4.78618    -28.084966
   4.84694    -28.087765
   4.90770    -28.088723
 
# Band-Index    4
   4.90770    -28.088719
   4.84694    -28.087761
   4.78618    -28.084961
   4.72542    -28.080677
   4.66466    -28.075266
   4.60390    -28.069233
   4.54314    -28.063131
   4.48238    -28.057623
   4.42162    -28.053622
   4.36087    -28.052138
   4.36087    -28.052138
   4.30563    -28.044463
   4.25039    -28.036650
   4.19515    -28.030979
   4.13991    -28.033216
   4.08467    -28.037992
   4.02943    -28.042886
   3.97419    -28.047565
   3.91895    -28.051877
   3.86371    -28.055692
   3.80848    -28.059002
   3.75324    -28.061678
   3.69800    -28.063660
   3.64276    -28.064831
   3.58752    -28.065243
   3.58752    -28.065243
   3.53180    -28.065378
   3.47609    -28.065806
   3.42037    -28.066516
   3.36466    -28.067571
   3.30895    -28.069030
   3.25323    -28.070887
   3.19752    -28.073160
   3.14180    -28.075856
   3.08609    -28.078949
   3.03037    -28.082335
   2.97466    -28.085969
   2.91894    -28.089710
   2.86323    -28.093429
   2.80751    -28.096871
   2.75180    -28.099798
   2.69608    -28.101762
   2.64037    -28.102469
   2.64037    -28.102469
   2.58764    -28.102004
   2.53491    -28.100668
   2.48218    -28.098599
   2.42946    -28.096022
   2.37673    -28.093133
   2.32400    -28.090074
   2.27127    -28.087007
   2.21854    -28.084026
   2.16581    -28.081164
   2.11309    -28.078419
   2.06036    -28.075759
   2.00763    -28.073011
   1.95490    -28.069962
   1.90217    -28.066278
   1.84945    -28.061577
   1.79672    -28.055570
   1.74399    -28.048224
   1.69126    -28.039771
   1.63853    -28.030460
   1.58581    -28.020610
   1.53308    -28.024340
   1.48035    -28.035447
   1.48035    -28.035447
   1.41590    -28.048618
   1.35146    -28.060962
   1.28701    -28.071891
   1.22257    -28.080739
   1.15812    -28.086632
   1.09368    -28.088719
   1.09368    -28.088719
   1.03899    -28.080424
   0.98431    -28.071684
   0.92962    -28.062531
   0.87494    -28.053123
   0.82026    -28.043460
   0.76557    -28.046916
   0.71089    -28.053806
   0.65621    -28.060389
   0.60152    -28.066608
   0.54684    -28.072436
   0.49215    -28.077853
   0.43747    -28.082801
   0.38279    -28.087328
   0.32810    -28.091252
   0.27342    -28.094641
   0.21874    -28.097429
   0.16405    -28.099625
   0.10937    -28.101201
   0.05468    -28.102151
   0.00000    -28.102469
 
# Band-Index    5
   0.00000    -28.102469
   0.05468    -28.101416
   0.10937    -28.098405
   0.16405    -28.093919
   0.21874    -28.088314
   0.27342    -28.081854
   0.32810    -28.074723
   0.38279    -28.067063
   0.43747    -28.058912
   0.49215    -28.050415
   0.54684    -28.041599
   0.60152    -28.032564
   0.65621    -28.023349
   0.71089    -28.023635
   0.76557    -28.033612
   0.82026    -28.039758
   0.87494    -28.032380
   0.92962    -28.024851
   0.98431    -28.017245
   1.03899    -28.009514
   1.09368    -28.001769
   1.09368    -28.001769
   1.15812    -28.002055
   1.22257    -28.002935
   1.28701    -28.004384
   1.35146    -28.006387
   1.41590    -28.008915
   1.48035    -28.011993
   1.48035    -28.011993
   1.53308    -28.014879
   1.58581    -28.018032
   1.63853    -28.021492
   1.69126    -28.025235
   1.74399    -28.029188
   1.79672    -28.033421
   1.84945    -28.037840
   1.90217    -28.042446
   1.95490    -28.047240
   2.00763    -28.052164
   2.06036    -28.057185
   2.11309    -28.062285
   2.16581    -28.067421
   2.21854    -28.072574
   2.27127    -28.077675
   2.32400    -28.082656
   2.37673    -28.087464
   2.42946    -28.091977
   2.48218    -28.096066
   2.53491    -28.099420
   2.58764    -28.101664
   2.64037    -28.102469
   2.64037    -28.102469
   2.69608    -28.101762
   2.75180    -28.099798
   2.80751    -28.096871
   2.86323    -28.093429
   2.91894    -28.089710
   2.97466    -28.085969
   3.03037    -28.082335
   3.08609    -28.078948
   3.14180    -28.075856
   3.19752    -28.073160
   3.25323    -28.070887
   3.30895    -28.069029
   3.36466    -28.067571
   3.42037    -28.066515
   3.47609    -28.065806
   3.53180    -28.065378
   3.58752    -28.065243
   3.58752    -28.065243
   3.64276    -28.064630
   3.69800    -28.062810
   3.75324    -28.059702
   3.80848    -28.055347
   3.86371    -28.049771
   3.91895    -28.043174
   3.97419    -28.035752
   4.02943    -28.027802
   4.08467    -28.019606
   4.13991    -28.015874
   4.19515    -28.021791
   4.25039    -28.019222
   4.30563    -28.013950
   4.36087    -28.008316
   4.36087    -28.008316
   4.42162    -28.007700
   4.48238    -28.006304
   4.54314    -28.004838
   4.60390    -28.003670
   4.66466    -28.002871
   4.72542    -28.002349
   4.78618    -28.002007
   4.84694    -28.001830
   4.90770    -28.001769
 
# Band-Index    6
   4.90770    -28.001765
   4.84694    -28.001825
   4.78618    -28.002003
   4.72542    -28.002345
   4.66466    -28.002867
   4.60390    -28.003666
   4.54314    -28.004833
   4.48238    -28.006300
   4.42162    -28.007696
   4.36087    -28.008312
   4.36087    -28.008312
   4.30563    -28.002725
   4.25039    -27.999019
   4.19515    -28.003726
   4.13991    -28.011441
   4.08467    -28.006936
   4.02943    -27.997457
   3.97419    -27.987843
   3.91895    -27.978389
   3.86371    -27.969335
   3.80848    -27.961164
   3.75324    -27.954427
   3.69800    -27.949944
   3.64276    -27.947741
   3.58752    -27.947127
   3.58752    -27.947127
   3.53180    -27.947067
   3.47609    -27.946858
   3.42037    -27.946498
   3.36466    -27.945941
   3.30895    -27.945141
   3.25323    -27.944030
   3.19752    -27.942558
   3.14180    -27.940721
   3.08609    -27.938523
   3.03037    -27.936021
   2.97466    -27.933216
   2.91894    -27.930206
   2.86323    -27.927089
   2.80751    -27.923983
   2.75180    -27.921085
   2.69608    -27.918791
   2.64037    -27.917848
   2.64037    -27.917848
   2.58764    -27.919222
   2.53491    -27.922410
   2.48218    -27.926360
   2.42946    -27.930643
   2.37673    -27.935083
   2.32400    -27.939625
   2.27127    -27.944180
   2.21854    -27.948727
   2.16581    -27.953182
   2.11309    -27.957566
   2.06036    -27.961828
   2.00763    -27.965976
   1.95490    -27.969931
   1.90217    -27.973712
   1.84945    -27.977291
   1.79672    -27.980631
   1.74399    -27.983722
   1.69126    -27.991038
   1.63853    -28.001940
   1.58581    -28.013098
   1.53308    -28.010488
   1.48035    -28.000294
   1.48035    -28.000294
   1.41590    -27.997441
   1.35146    -27.999031
   1.28701    -28.000227
   1.22257    -28.001081
   1.15812    -28.001591
   1.09368    -28.001765
   1.09368    -28.001765
   1.03899    -27.994050
   0.98431    -27.986413
   0.92962    -27.978881
   0.87494    -27.986008
   0.82026    -27.995307
   0.76557    -28.004680
   0.71089    -28.014049
   0.65621    -28.013589
   0.60152    -28.003575
   0.54684    -27.993588
   0.49215    -27.983798
   0.43747    -27.974232
   0.38279    -27.964946
   0.32810    -27.956016
   0.27342    -27.947509
   0.21874    -27.939507
   0.16405    -27.932119
   0.10937    -27.925552
   0.05468    -27.920246
   0.00000    -27.917848
 
# Band-Index    7
   0.00000    -27.917848
   0.05468    -27.917522
   0.10937    -27.916547
   0.16405    -27.914939
   0.21874    -27.912782
   0.27342    -27.912355
   0.32810    -27.915466
   0.38279    -27.919119
   0.43747    -27.923287
   0.49215    -27.927938
   0.54684    -27.933023
   0.60152    -27.938563
   0.65621    -27.944518
   0.71089    -27.950818
   0.76557    -27.957444
   0.82026    -27.964351
   0.87494    -27.971513
   0.92962    -27.976833
   0.98431    -27.967856
   1.03899    -27.959067
   1.09368    -27.950583
   1.09368    -27.950583
   1.15812    -27.952560
   1.22257    -27.958113
   1.28701    -27.966396
   1.35146    -27.976610
   1.41590    -27.988085
   1.48035    -27.995546
   1.48035    -27.995546
   1.53308    -27.993708
   1.58581    -27.991564
   1.63853    -27.989207
   1.69126    -27.986602
   1.74399    -27.980526
   1.79672    -27.970723
   1.84945    -27.962025
   1.90217    -27.955475
   1.95490    -27.951639
   2.00763    -27.949131
   2.06036    -27.946846
   2.11309    -27.944460
   2.16581    -27.941844
   2.21854    -27.938993
   2.27127    -27.935904
   2.32400    -27.932658
   2.37673    -27.929354
   2.42946    -27.926088
   2.48218    -27.923053
   2.53491    -27.920435
   2.58764    -27.918552
   2.64037    -27.917848
   2.64037    -27.917848
   2.69608    -27.918791
   2.75180    -27.921085
   2.80751    -27.923983
   2.86323    -27.927089
   2.91894    -27.930206
   2.97466    -27.933216
   3.03037    -27.936021
   3.08609    -27.938523
   3.14180    -27.940721
   3.19752    -27.942558
   3.25323    -27.944030
   3.30895    -27.945141
   3.36466    -27.945941
   3.42037    -27.946498
   3.47609    -27.946858
   3.53180    -27.947067
   3.58752    -27.947127
   3.58752    -27.947127
   3.64276    -27.947628
   3.69800    -27.949109
   3.75324    -27.951472
   3.80848    -27.954660
   3.86371    -27.958494
   3.91895    -27.962873
   3.97419    -27.967656
   4.02943    -27.972802
   4.08467    -27.978188
   4.13991    -27.983712
   4.19515    -27.989098
   4.25039    -27.991881
   4.30563    -27.986739
   4.36087    -27.980258
   4.36087    -27.980258
   4.42162    -27.979352
   4.48238    -27.976780
   4.54314    -27.972772
   4.60390    -27.967884
   4.66466    -27.962753
   4.72542    -27.957978
   4.78618    -27.954069
   4.84694    -27.951524
   4.90770    -27.950583
 
# Band-Index    8
   4.90770    -27.950580
   4.84694    -27.951521
   4.78618    -27.954066
   4.72542    -27.957974
   4.66466    -27.962750
   4.60390    -27.967881
   4.54314    -27.972769
   4.48238    -27.976777
   4.42162    -27.979350
   4.36087    -27.980256
   4.36087    -27.980256
   4.30563    -27.974108
   4.25039    -27.968540
   4.19515    -27.963579
   4.13991    -27.959237
   4.08467    -27.955482
   4.02943    -27.952280
   3.97419    -27.949541
   3.91895    -27.947220
   3.86371    -27.945181
   3.80848    -27.943254
   3.75324    -27.941113
   3.69800    -27.938472
   3.64276    -27.935909
   3.58752    -27.934836
   3.58752    -27.934836
   3.53180    -27.934684
   3.47609    -27.934236
   3.42037    -27.933517
   3.36466    -27.932544
   3.30895    -27.931311
   3.25323    -27.929953
   3.19752    -27.928517
   3.14180    -27.926973
   3.08609    -27.925419
   3.03037    -27.923886
   2.97466    -27.922378
   2.91894    -27.921068
   2.86323    -27.919943
   2.80751    -27.919034
   2.75180    -27.918386
   2.69608    -27.917986
   2.64037    -27.917845
   2.64037    -27.917845
   2.58764    -27.917543
   2.53491    -27.916631
   2.48218    -27.915079
   2.42946    -27.912972
   2.37673    -27.910313
   2.32400    -27.907131
   2.27127    -27.908357
   2.21854    -27.911483
   2.16581    -27.915467
   2.11309    -27.920321
   2.06036    -27.925985
   2.00763    -27.932313
   1.95490    -27.938892
   1.90217    -27.944652
   1.84945    -27.948136
   1.79672    -27.949859
   1.74399    -27.950780
   1.69126    -27.951308
   1.63853    -27.951566
   1.58581    -27.951654
   1.53308    -27.951647
   1.48035    -27.951543
   1.48035    -27.951543
   1.41590    -27.951338
   1.35146    -27.951136
   1.28701    -27.950955
   1.22257    -27.950795
   1.15812    -27.950689
   1.09368    -27.950580
   1.09368    -27.950580
   1.03899    -27.942530
   0.98431    -27.934895
   0.92962    -27.927660
   0.87494    -27.920982
   0.82026    -27.914858
   0.76557    -27.909350
   0.71089    -27.904486
   0.65621    -27.900298
   0.60152    -27.896840
   0.54684    -27.894092
   0.49215    -27.896629
   0.43747    -27.900273
   0.38279    -27.903831
   0.32810    -27.907155
   0.27342    -27.910171
   0.21874    -27.912780
   0.16405    -27.914937
   0.10937    -27.916546
   0.05468    -27.917520
   0.00000    -27.917845
 
# Band-Index    9
   0.00000    -27.905122
   0.05468    -27.905414
   0.10937    -27.906291
   0.16405    -27.907745
   0.21874    -27.909768
   0.27342    -27.910169
   0.32810    -27.907153
   0.38279    -27.903829
   0.43747    -27.900271
   0.49215    -27.896627
   0.54684    -27.892915
   0.60152    -27.889297
   0.65621    -27.885780
   0.71089    -27.882491
   0.76557    -27.879489
   0.82026    -27.876804
   0.87494    -27.874549
   0.92962    -27.872749
   0.98431    -27.871456
   1.03899    -27.870661
   1.09368    -27.870343
   1.09368    -27.870343
   1.15812    -27.870311
   1.22257    -27.870269
   1.28701    -27.870135
   1.35146    -27.869968
   1.41590    -27.869815
   1.48035    -27.869707
   1.48035    -27.869707
   1.53308    -27.869682
   1.58581    -27.869711
   1.63853    -27.869838
   1.69126    -27.870094
   1.74399    -27.870472
   1.79672    -27.871031
   1.84945    -27.871752
   1.90217    -27.872668
   1.95490    -27.876070
   2.00763    -27.880752
   2.06036    -27.885529
   2.11309    -27.890318
   2.16581    -27.894997
   2.21854    -27.899420
   2.27127    -27.903496
   2.32400    -27.906122
   2.37673    -27.904702
   2.42946    -27.904017
   2.48218    -27.903962
   2.53491    -27.904356
   2.58764    -27.904874
   2.64037    -27.905122
   2.64037    -27.905122
   2.69608    -27.904276
   2.75180    -27.902269
   2.80751    -27.899820
   2.86323    -27.897290
   2.91894    -27.894854
   2.97466    -27.892621
   3.03037    -27.890609
   3.08609    -27.888827
   3.14180    -27.887306
   3.19752    -27.886036
   3.25323    -27.885001
   3.30895    -27.884190
   3.36466    -27.883550
   3.42037    -27.883099
   3.47609    -27.882803
   3.53180    -27.882634
   3.58752    -27.882578
   3.58752    -27.882578
   3.64276    -27.882285
   3.69800    -27.881457
   3.75324    -27.880138
   3.80848    -27.878460
   3.86371    -27.876506
   3.91895    -27.874412
   3.97419    -27.872210
   4.02943    -27.870000
   4.08467    -27.867833
   4.13991    -27.865764
   4.19515    -27.863818
   4.25039    -27.862049
   4.30563    -27.860500
   4.36087    -27.859237
   4.36087    -27.859237
   4.42162    -27.859490
   4.48238    -27.860308
   4.54314    -27.861611
   4.60390    -27.863290
   4.66466    -27.865204
   4.72542    -27.867129
   4.78618    -27.868801
   4.84694    -27.869966
   4.90770    -27.870343
 
# Band-Index   10
   4.90770    -27.870341
   4.84694    -27.869964
   4.78618    -27.868799
   4.72542    -27.867127
   4.66466    -27.865201
   4.60390    -27.863287
   4.54314    -27.861608
   4.48238    -27.860305
   4.42162    -27.859487
   4.36087    -27.859233
   4.36087    -27.859233
   4.30563    -27.858255
   4.25039    -27.857680
   4.19515    -27.857543
   4.13991    -27.857908
   4.08467    -27.858830
   4.02943    -27.860353
   3.97419    -27.862470
   3.91895    -27.865166
   3.86371    -27.868358
   3.80848    -27.871964
   3.75324    -27.875685
   3.69800    -27.879113
   3.64276    -27.881624
   3.58752    -27.882577
   3.58752    -27.882577
   3.53180    -27.882634
   3.47609    -27.882802
   3.42037    -27.883099
   3.36466    -27.883549
   3.30895    -27.884190
   3.25323    -27.885001
   3.19752    -27.886036
   3.14180    -27.887306
   3.08609    -27.888826
   3.03037    -27.890609
   2.97466    -27.892621
   2.91894    -27.894854
   2.86323    -27.897290
   2.80751    -27.899820
   2.75180    -27.902269
   2.69608    -27.904276
   2.64037    -27.905122
   2.64037    -27.905122
   2.58764    -27.903895
   2.53491    -27.901148
   2.48218    -27.897923
   2.42946    -27.894627
   2.37673    -27.891446
   2.32400    -27.888435
   2.27127    -27.885627
   2.21854    -27.883055
   2.16581    -27.880703
   2.11309    -27.878600
   2.06036    -27.876756
   2.00763    -27.875167
   1.95490    -27.873799
   1.90217    -27.871658
   1.84945    -27.867613
   1.79672    -27.864039
   1.74399    -27.861025
   1.69126    -27.858692
   1.63853    -27.857037
   1.58581    -27.856151
   1.53308    -27.856038
   1.48035    -27.856673
   1.48035    -27.856673
   1.41590    -27.858371
   1.35146    -27.860977
   1.28701    -27.864060
   1.22257    -27.867140
   1.15812    -27.869486
   1.09368    -27.870341
   1.09368    -27.870341
   1.03899    -27.870659
   0.98431    -27.871454
   0.92962    -27.872747
   0.87494    -27.874547
   0.82026    -27.876802
   0.76557    -27.879487
   0.71089    -27.882489
   0.65621    -27.885778
   0.60152    -27.889295
   0.54684    -27.892913
   0.49215    -27.892165
   0.43747    -27.891012
   0.38279    -27.890659
   0.32810    -27.891106
   0.27342    -27.892346
   0.21874    -27.894307
   0.16405    -27.896960
   0.10937    -27.900160
   0.05468    -27.903409
   0.00000    -27.905122
 
# Band-Index   11
   0.00000    -13.911498
   0.05468    -13.900649
   0.10937    -13.868077
   0.16405    -13.813816
   0.21874    -13.737970
   0.27342    -13.640581
   0.32810    -13.521756
   0.38279    -13.381675
   0.43747    -13.220476
   0.49215    -13.038356
   0.54684    -12.835586
   0.60152    -12.612424
   0.65621    -12.369187
   0.71089    -12.106275
   0.76557    -11.824065
   0.82026    -11.523029
   0.87494    -11.203723
   0.92962    -10.866688
   0.98431    -10.512574
   1.03899    -10.142092
   1.09368     -9.755966
   1.09368     -9.755966
   1.15812     -9.767351
   1.22257     -9.802834
   1.28701     -9.866052
   1.35146     -9.962113
   1.41590    -10.096051
   1.48035    -10.270801
   1.48035    -10.270801
   1.53308    -10.443707
   1.58581    -10.640890
   1.63853    -10.858177
   1.69126    -11.090451
   1.74399    -11.332277
   1.79672    -11.578446
   1.84945    -11.824311
   1.90217    -12.065881
   1.95490    -12.299815
   2.00763    -12.523408
   2.06036    -12.734478
   2.11309    -12.931252
   2.16581    -13.112332
   2.21854    -13.276623
   2.27127    -13.423205
   2.32400    -13.551397
   2.37673    -13.660677
   2.42946    -13.750587
   2.48218    -13.820813
   2.53491    -13.871155
   2.58764    -13.901413
   2.64037    -13.911498
   2.64037    -13.911498
   2.69608    -13.900239
   2.75180    -13.866470
   2.80751    -13.810339
   2.86323    -13.732136
   2.91894    -13.632216
   2.97466    -13.511156
   3.03037    -13.369802
   3.08609    -13.209258
   3.14180    -13.031205
   3.19752    -12.838047
   3.25323    -12.633270
   3.30895    -12.422146
   3.36466    -12.212632
   3.42037    -12.016615
   3.47609    -11.851177
   3.53180    -11.737884
   3.58752    -11.697171
   3.58752    -11.697171
   3.64276    -11.685736
   3.69800    -11.651476
   3.75324    -11.594504
   3.80848    -11.515030
   3.86371    -11.413361
   3.91895    -11.289930
   3.97419    -11.145313
   4.02943    -10.980320
   4.08467    -10.796012
   4.13991    -10.593820
   4.19515    -10.375658
   4.25039    -10.144108
   4.30563     -9.902604
   4.36087     -9.655712
   4.36087     -9.655712
   4.42162     -9.658877
   4.48238     -9.667949
   4.54314     -9.681697
   4.60390     -9.698317
   4.66466     -9.715719
   4.72542     -9.731804
   4.78618     -9.744726
   4.84694     -9.753083
   4.90770     -9.755966
 
# Band-Index   12
   4.90770     -9.755960
   4.84694     -9.753077
   4.78618     -9.744719
   4.72542     -9.731797
   4.66466     -9.715713
   4.60390     -9.698311
   4.54314     -9.681691
   4.48238     -9.667943
   4.42162     -9.658871
   4.36087     -9.655706
   4.36087     -9.655706
   4.30563     -9.409381
   4.25039     -9.171160
   4.19515     -8.949954
   4.13991     -8.755036
   4.08467     -8.594304
   4.02943     -8.472036
   3.97419     -8.387533
   3.91895     -8.335568
   3.86371     -8.308392
   3.80848     -8.297879
   3.75324     -8.296916
   3.69800     -8.299989
   3.64276     -8.303295
   3.58752     -8.304637
   3.58752     -8.304637
   3.53180     -8.240132
   3.47609     -8.055511
   3.42037     -7.771428
   3.36466     -7.409834
   3.30895     -6.988323
   3.25323     -6.519521
   3.19752     -6.012354
   3.14180     -5.473307
   3.08609     -4.907470
   3.03037     -4.319270
   2.97466     -3.712922
   2.91894     -3.092910
   2.86323     -2.464500
   2.80751     -1.834377
   2.75180     -1.212344
   2.69608     -0.617951
   2.64037     -0.203576
   2.64037     -0.203576
   2.58764     -0.579567
   2.53491     -1.119879
   2.48218     -1.678693
   2.42946     -2.238031
   2.37673     -2.789776
   2.32400     -3.329057
   2.27127     -3.852669
   2.21854     -4.358376
   2.16581     -4.844561
   2.11309     -5.310067
   2.06036     -5.754049
   2.00763     -6.175894
   1.95490     -6.575122
   1.90217     -6.951380
   1.84945     -7.304411
   1.79672     -7.634018
   1.74399     -7.940072
   1.69126     -8.222451
   1.63853     -8.481069
   1.58581     -8.715876
   1.53308     -8.926837
   1.48035     -9.113919
   1.48035     -9.113919
   1.41590     -9.310128
   1.35146     -9.470658
   1.28701     -9.595498
   1.22257     -9.684654
   1.15812     -9.738138
   1.09368     -9.755960
   1.09368     -9.755960
   1.03899     -9.355002
   0.98431     -8.940072
   0.92962     -8.512013
   0.87494     -8.071764
   0.82026     -7.620255
   0.76557     -7.158370
   0.71089     -6.687005
   0.65621     -6.207029
   0.60152     -5.719214
   0.54684     -5.224308
   0.49215     -4.722994
   0.43747     -4.215848
   0.38279     -3.703454
   0.32810     -3.186378
   0.27342     -2.665237
   0.21874     -2.140878
   0.16405     -1.614622
   0.10937     -1.089156
   0.05468     -0.574036
   0.00000     -0.203576
 
# Band-Index   13
   0.00000     -0.203530
   0.05468     -0.251891
   0.10937     -0.386298
   0.16405     -0.582822
   0.21874     -0.817044
   0.27342     -1.070235
   0.32810     -1.329526
   0.38279     -1.586349
   0.43747     -1.834939
   0.49215     -2.071320
   0.54684     -2.292674
   0.60152     -2.496950
   0.65621     -2.682623
   0.71089     -2.848520
   0.76557     -2.993750
   0.82026     -3.117623
   0.87494     -3.219614
   0.92962     -3.299321
   0.98431     -3.356451
   1.03899     -3.390805
   1.09368     -3.402267
   1.09368     -3.402267
   1.15812     -3.484755
   1.22257     -3.699697
   1.28701     -3.979382
   1.35146     -4.262504
   1.41590     -4.506743
   1.48035     -4.686319
   1.48035     -4.686320
   1.53308     -4.775729
   1.58581     -4.810710
   1.63853     -4.792183
   1.69126     -4.723132
   1.74399     -4.607624
   1.79672     -4.450102
   1.84945     -4.254991
   1.90217     -4.026466
   1.95490     -3.768468
   2.00763     -3.484784
   2.06036     -3.179181
   2.11309     -2.855603
   2.16581     -2.518363
   2.21854     -2.172466
   2.27127     -1.823945
   2.32400     -1.480311
   2.37673     -1.151030
   2.42946     -0.847980
   2.48218     -0.585660
   2.53491     -0.380547
   2.58764     -0.248990
   2.64037     -0.203530
   2.64037     -0.203530
   2.69608     -0.225333
   2.75180     -0.287667
   2.80751     -0.382653
   2.86323     -0.500442
   2.91894     -0.631609
   2.97466     -0.768326
   3.03037     -0.904545
   3.08609     -1.035763
   3.14180     -1.158681
   3.19752     -1.270893
   3.25323     -1.370646
   3.30895     -1.456674
   3.36466     -1.528061
   3.42037     -1.584158
   3.47609     -1.624515
   3.53180     -1.648841
   3.58752     -1.656968
   3.58752     -1.656968
   3.64276     -1.795624
   3.69800     -2.129150
   3.75324     -2.540623
   3.80848     -2.965537
   3.86371     -3.370734
   3.91895     -3.735413
   3.97419     -4.044004
   4.02943     -4.284476
   4.08467     -4.449141
   4.13991     -4.535955
   4.19515     -4.548713
   4.25039     -4.495511
   4.30563     -4.386429
   4.36087     -4.231681
   4.36087     -4.231681
   4.42162     -4.210993
   4.48238     -4.150381
   4.54314     -4.054263
   4.60390     -3.930216
   4.66466     -3.789325
   4.72542     -3.646633
   4.78618     -3.521116
   4.84694     -3.433765
   4.90770     -3.402267
 
# Band-Index   14
   4.90770     -3.402247
   4.84694     -3.433746
   4.78618     -3.521098
   4.72542     -3.646616
   4.66466     -3.789309
   4.60390     -3.930202
   4.54314     -4.054250
   4.48238     -4.150369
   4.42162     -4.210982
   4.36087     -4.231670
   4.36087     -4.231670
   4.30563     -4.040698
   4.25039     -3.822029
   4.19515     -3.583467
   4.13991     -3.332403
   4.08467     -3.076147
   4.02943     -2.822117
   3.97419     -2.577851
   3.91895     -2.350796
   3.86371     -2.147942
   3.80848     -1.975307
   3.75324     -1.837510
   3.69800     -1.737581
   3.64276     -1.677165
   3.58752     -1.656968
   3.58752     -1.656968
   3.53180     -1.648840
   3.47609     -1.624514
   3.42037     -1.584157
   3.36466     -1.528060
   3.30895     -1.456673
   3.25323     -1.370646
   3.19752     -1.270893
   3.14180     -1.158680
   3.08609     -1.035762
   3.03037     -0.904544
   2.97466     -0.768326
   2.91894     -0.631608
   2.86323     -0.500442
   2.80751     -0.382653
   2.75180     -0.287667
   2.69608     -0.225333
   2.64037     -0.203530
   2.64037     -0.203530
   2.58764     -0.210271
   2.53491     -0.230664
   2.48218     -0.265200
   2.42946     -0.314552
   2.37673     -0.379484
   2.32400     -0.460669
   2.27127     -0.558501
   2.21854     -0.672917
   2.16581     -0.803247
   2.11309     -0.948212
   2.06036     -1.105935
   2.00763     -1.274049
   1.95490     -1.449867
   1.90217     -1.630511
   1.84945     -1.813079
   1.79672     -1.994763
   1.74399     -2.172938
   1.69126     -2.345207
   1.63853     -2.509420
   1.58581     -2.663679
   1.53308     -2.806348
   1.48035     -2.936000
   1.48035     -2.936000
   1.41590     -3.075054
   1.35146     -3.191094
   1.28701     -3.282724
   1.22257     -3.348894
   1.15812     -3.388875
   1.09368     -3.402247
   1.09368     -3.402247
   1.03899     -3.390785
   0.98431     -3.356431
   0.92962     -3.299300
   0.87494     -3.219594
   0.82026     -3.117603
   0.76557     -2.993729
   0.71089     -2.848500
   0.65621     -2.682602
   0.60152     -2.496928
   0.54684     -2.292652
   0.49215     -2.071298
   0.43747     -1.834916
   0.38279     -1.586325
   0.32810     -1.329501
   0.27342     -1.070209
   0.21874     -0.817017
   0.16405     -0.582794
   0.10937     -0.386270
   0.05468     -0.251861
   0.00000     -0.203530
 
# Band-Index   15
   0.00000      0.187137
   0.05468      0.553583
   0.10937      1.055120
   0.16405      1.552876
   0.21874      2.028540
   0.27342      2.308639
   0.32810      2.103007
   0.38279      1.902203
   0.43747      1.712227
   0.49215      1.537309
   0.54684      1.380491
   0.60152      1.243991
   0.65621      1.129491
   0.71089      1.038279
   0.76557      0.971370
   0.82026      0.929571
   0.87494      0.913546
   0.92962      0.923833
   0.98431      0.960853
   1.03899      1.024912
   1.09368      1.116158
   1.09368      1.116158
   1.15812      1.128373
   1.22257      1.164839
   1.28701      1.224963
   1.35146      1.307691
   1.41590      1.411396
   1.48035      1.533696
   1.48035      1.533696
   1.53308      1.645257
   1.58581      1.764475
   1.63853      1.887998
   1.69126      2.011472
   1.74399      2.129365
   1.79672      2.234975
   1.84945      2.320833
   1.90217      2.379736
   1.95490      2.406398
   2.00763      2.399027
   2.06036      2.359801
   2.11309      2.293760
   2.16581      2.206819
   2.21854      2.103837
   2.27127      1.987145
   2.32400      1.855164
   2.37673      1.700678
   2.42946      1.508786
   2.48218      1.257265
   2.53491      0.926197
   2.58764      0.519875
   2.64037      0.187137
   2.64037      0.187137
   2.69608      0.537785
   2.75180      0.926567
   2.80751      1.176494
   2.86323      1.277950
   2.91894      1.272286
   2.97466      1.206195
   3.03037      1.111034
   3.08609      1.004996
   3.14180      0.898512
   3.19752      0.797719
   3.25323      0.706337
   3.30895      0.626674
   3.36466      0.560177
   3.42037      0.507755
   3.47609      0.469978
   3.53180      0.447194
   3.58752      0.439581
   3.58752      0.439581
   3.64276      0.578154
   3.69800      0.909465
   3.75324      1.311925
   3.80848      1.717489
   3.86371      2.096192
   3.91895      2.440464
   3.97419      2.755664
   4.02943      3.052211
   4.08467      3.340402
   4.13991      3.628327
   4.19515      3.921553
   4.25039      4.223157
   4.30563      4.532175
   4.36087      4.820403
   4.36087      4.820401
   4.42162      4.313637
   4.48238      3.696950
   4.54314      3.113061
   4.60390      2.576110
   4.66466      2.098314
   4.72542      1.694567
   4.78618      1.383235
   4.84694      1.184673
   4.90770      1.116158
 
# Band-Index   16
   4.90770      1.116169
   4.84694      1.184683
   4.78618      1.383247
   4.72542      1.694573
   4.66466      2.098322
   4.60390      2.576116
   4.54314      3.113069
   4.48238      3.696953
   4.42162      4.313644
   4.36087      4.820405
   4.36087      4.820403
   4.30563      4.784379
   4.25039      4.554784
   4.19515      4.340886
   4.13991      4.159474
   4.08467      4.015782
   4.02943      3.913301
   3.97419      3.854541
   3.91895      3.840511
   3.86371      3.869595
   3.80848      3.935924
   3.75324      4.027410
   3.69800      4.124215
   3.64276      4.199887
   3.58752      4.228821
   3.58752      4.228821
   3.53180      4.231895
   3.47609      4.240290
   3.42037      4.251496
   3.36466      4.261224
   3.30895      4.263416
   3.25323      4.250482
   3.19752      4.214161
   3.14180      4.147216
   3.08609      4.045705
   3.03037      3.910943
   2.97466      3.749930
   2.91894      3.574204
   2.86323      3.398050
   2.80751      3.237001
   2.75180      3.106696
   2.69608      3.021423
   2.64037      2.991677
   2.64037      2.991673
   2.58764      3.002966
   2.53491      3.036780
   2.48218      3.093069
   2.42946      3.171733
   2.37673      3.272628
   2.32400      3.395572
   2.27127      3.540346
   2.21854      3.706689
   2.16581      3.894301
   2.11309      4.102837
   2.06036      4.331918
   2.00763      4.581111
   1.95490      4.849932
   1.90217      5.137823
   1.84945      5.444141
   1.79672      5.768138
   1.74399      6.108914
   1.69126      6.465381
   1.63853      6.648564
   1.58581      6.008489
   1.53308      5.280359
   1.48035      4.556959
   1.48035      4.556958
   1.41590      3.708057
   1.35146      2.919861
   1.28701      2.219237
   1.22257      1.645627
   1.15812      1.256394
   1.09368      1.116169
   1.09368      1.116170
   1.03899      1.234570
   0.98431      1.379828
   0.92962      1.551216
   0.87494      1.747406
   0.82026      1.966115
   0.76557      2.203540
   0.71089      2.453437
   0.65621      2.705533
   0.60152      2.943017
   0.54684      3.139271
   0.49215      3.256577
   0.43747      3.254202
   0.38279      3.110160
   0.32810      2.836029
   0.27342      2.464493
   0.21874      2.510534
   0.16405      2.696645
   0.10937      2.850964
   0.05468      2.954801
   0.00000      2.991678
 
# Band-Index   17
   0.00000      2.991684
   0.05468      3.053343
   0.10937      3.227663
   0.16405      3.490451
   0.21874      3.816939
   0.27342      4.187912
   0.32810      4.589971
   0.38279      5.013932
   0.43747      5.453417
   0.49215      5.903840
   0.54684      6.361717
   0.60152      6.824315
   0.65621      7.289222
   0.71089      7.753935
   0.76557      8.215320
   0.82026      8.668671
   0.87494      9.106071
   0.92962      9.513425
   0.98431      9.864607
   1.03899     10.117376
   1.09368     10.208647
   1.09368     10.208197
   1.15812     10.053950
   1.22257      9.684547
   1.28701      9.231226
   1.35146      8.809866
   1.41590      8.424547
   1.48035      7.807191
   1.48035      7.819208
   1.53308      7.438469
   1.58581      7.102499
   1.63853      6.835242
   1.69126      6.493231
   1.74399      6.242193
   1.79672      6.004433
   1.84945      5.656096
   1.90217      5.323893
   1.95490      5.010767
   2.00763      4.718137
   2.06036      4.446848
   2.11309      4.197519
   2.16581      3.970641
   2.21854      3.766623
   2.27127      3.585839
   2.32400      3.428620
   2.37673      3.295248
   2.42946      3.185949
   2.48218      3.100904
   2.53491      3.040190
   2.58764      3.003800
   2.64037      2.991688
   2.64037      2.991684
   2.69608      3.021424
   2.75180      3.106696
   2.80751      3.237001
   2.86323      3.398050
   2.91894      3.574204
   2.97466      3.749930
   3.03037      3.910943
   3.08609      4.045705
   3.14180      4.147216
   3.19752      4.214161
   3.25323      4.250483
   3.30895      4.263417
   3.36466      4.261224
   3.42037      4.251496
   3.47609      4.240292
   3.53180      4.231897
   3.58752      4.228822
   3.58752      4.228822
   3.64276      4.271159
   3.69800      4.400476
   3.75324      4.622350
   3.80848      4.941326
   3.86371      5.354021
   3.91895      5.840926
   3.97419      6.349560
   4.02943      6.725485
   4.08467      6.719353
   4.13991      6.365337
   4.19515      5.980927
   4.25039      5.612023
   4.30563      5.274325
   4.36087      5.174898
   4.36087      5.174898
   4.42162      5.708417
   4.48238      6.405148
   4.54314      7.121355
   4.60390      7.840011
   4.66466      8.541182
   4.72542      9.191343
   4.78618      9.731821
   4.84694     10.087275
   4.90770     10.209621
 
# Band-Index   18
   4.90770     10.460613
   4.84694     10.093423
   4.78618      9.742362
   4.72542      9.196253
   4.66466      8.541326
   4.60390      7.840175
   4.54314      7.121357
   4.48238      6.405151
   4.42162      5.708418
   4.36087      5.174899
   4.36087      5.174899
   4.30563      5.441060
   4.25039      5.764006
   4.19515      6.105918
   4.13991      6.444823
   4.08467      6.759215
   4.02943      7.156555
   3.97419      7.538475
   3.91895      7.892438
   3.86371      8.137784
   3.80848      8.207469
   3.75324      8.092983
   3.69800      7.903338
   3.64276      7.745792
   3.58752      7.685847
   3.58752      7.686644
   3.53180      7.696778
   3.47609      7.729595
   3.42037      7.776633
   3.36466      7.829125
   3.30895      7.787744
   3.25323      7.436362
   3.19752      6.917095
   3.14180      6.360585
   3.08609      5.802107
   3.03037      5.250505
   2.97466      4.713594
   2.91894      4.204238
   2.86323      3.746938
   2.80751      3.380999
   2.75180      3.142028
   2.69608      3.024489
   2.64037      2.991688
   2.64037      2.991688
   2.58764      3.050288
   2.53491      3.228594
   2.48218      3.524211
   2.42946      3.913140
   2.37673      4.349981
   2.32400      4.780817
   2.27127      5.151892
   2.21854      5.420412
   2.16581      5.573523
   2.11309      5.635478
   2.06036      5.649267
   2.00763      5.655397
   1.95490      5.683390
   1.90217      5.751222
   1.84945      5.867035
   1.79672      6.031790
   1.74399      6.361160
   1.69126      6.685048
   1.63853      7.479009
   1.58581      7.229833
   1.53308      7.613852
   1.48035      8.267569
   1.48035      8.025085
   1.41590      9.159677
   1.35146      9.003146
   1.28701      9.461855
   1.22257      9.912210
   1.15812     10.108662
   1.09368     10.215946
   1.09368     10.217449
   1.03899     10.308963
   0.98431      9.872585
   0.92962      9.906004
   0.87494      9.147202
   0.82026      8.684595
   0.76557      9.266920
   0.71089      8.150462
   0.65621      7.305343
   0.60152      6.829315
   0.54684      6.363004
   0.49215      5.903984
   0.43747      5.453575
   0.38279      5.013950
   0.32810      4.589987
   0.27342      4.187924
   0.21874      3.816952
   0.16405      3.490460
   0.10937      3.227671
   0.05468      3.053347
   0.00000      2.991688
