#K-Path(1/A) Energy-Level(eV)
# NKPTS & NBANDS: 120  18
# Band-Index    1
   0.00000    -24.768252
   0.05845    -24.769150
   0.11690    -24.771053
   0.17536    -24.773372
   0.23381    -24.775569
   0.29226    -24.777327
   0.35071    -24.778465
   0.40916    -24.779927
   0.46762    -24.782706
   0.52607    -24.785518
   0.58452    -24.788293
   0.64297    -24.791062
   0.70142    -24.793473
   0.75987    -24.795792
   0.81833    -24.797818
   0.87678    -24.799513
   0.93523    -24.800860
   0.99368    -24.801812
   1.05213    -24.802392
   1.11059    -24.802593
   1.11059    -24.802593
   1.13125    -24.802712
   1.15192    -24.803066
   1.17258    -24.803638
   1.19325    -24.804436
   1.21392    -24.805366
   1.23458    -24.806421
   1.25525    -24.807481
   1.27591    -24.808706
   1.29658    -24.809964
   1.31724    -24.811228
   1.33791    -24.812535
   1.35858    -24.813742
   1.37924    -24.814897
   1.39991    -24.815976
   1.42057    -24.816983
   1.44124    -24.817881
   1.46191    -24.818677
   1.48257    -24.819328
   1.50324    -24.819911
   1.50324    -24.819911
   1.56524    -24.820947
   1.62723    -24.820889
   1.68923    -24.819758
   1.75123    -24.817694
   1.81323    -24.814724
   1.87522    -24.810992
   1.93722    -24.806806
   1.99922    -24.802171
   2.06122    -24.798479
   2.12321    -24.796320
   2.18521    -24.793745
   2.24721    -24.790736
   2.30921    -24.787361
   2.37120    -24.783659
   2.43320    -24.779768
   2.49520    -24.775806
   2.55720    -24.772161
   2.61919    -24.769398
   2.68119    -24.768252
   2.68119    -24.768252
   2.73181    -24.768906
   2.78243    -24.770413
   2.83305    -24.772546
   2.88368    -24.774991
   2.93430    -24.777560
   2.98492    -24.780033
   3.03554    -24.782306
   3.08616    -24.784404
   3.13678    -24.786255
   3.18740    -24.787916
   3.23802    -24.789283
   3.28864    -24.790376
   3.33926    -24.791240
   3.38988    -24.792027
   3.44050    -24.792582
   3.49113    -24.792938
   3.54175    -24.793174
   3.59237    -24.793269
   3.64299    -24.793314
   3.64299    -24.793314
   3.68432    -24.793928
   3.72565    -24.795716
   3.76698    -24.798146
   3.80831    -24.800962
   3.84965    -24.803890
   3.89098    -24.806677
   3.93231    -24.809279
   3.97364    -24.811656
   4.01497    -24.813725
   4.05631    -24.815491
   4.09764    -24.816832
   4.13897    -24.817881
   4.18030    -24.818580
   4.22163    -24.818891
   4.26296    -24.818958
   4.30430    -24.818773
   4.34563    -24.818279
   4.38696    -24.817617
   4.42829    -24.816765
   4.42829    -24.816765
   4.45752    -24.816687
   4.48674    -24.816394
   4.51597    -24.816012
   4.54519    -24.815505
   4.57442    -24.814839
   4.60365    -24.814044
   4.63287    -24.813128
   4.66210    -24.812121
   4.69132    -24.811095
   4.72055    -24.809951
   4.74978    -24.808727
   4.77900    -24.807556
   4.80823    -24.806438
   4.83745    -24.805382
   4.86668    -24.804484
   4.89591    -24.803673
   4.92513    -24.803084
   4.95436    -24.802717
   4.98358    -24.802593
 
# Band-Index    2
   4.98358    -24.802592
   4.95436    -24.802717
   4.92513    -24.803083
   4.89591    -24.803672
   4.86668    -24.804483
   4.83745    -24.805382
   4.80823    -24.806437
   4.77900    -24.807554
   4.74978    -24.808726
   4.72055    -24.809950
   4.69132    -24.811094
   4.66210    -24.812120
   4.63287    -24.813127
   4.60365    -24.814043
   4.57442    -24.814838
   4.54519    -24.815503
   4.51597    -24.816011
   4.48674    -24.816393
   4.45752    -24.816686
   4.42829    -24.816764
   4.42829    -24.816764
   4.38696    -24.815667
   4.34563    -24.814442
   4.30430    -24.813179
   4.26296    -24.811761
   4.22163    -24.810264
   4.18030    -24.808713
   4.13897    -24.807054
   4.09764    -24.805396
   4.05631    -24.803784
   4.01497    -24.802165
   3.97364    -24.800593
   3.93231    -24.799078
   3.89098    -24.797698
   3.84965    -24.796473
   3.80831    -24.795419
   3.76698    -24.794541
   3.72565    -24.793888
   3.68432    -24.793449
   3.64299    -24.793314
   3.64299    -24.793314
   3.59237    -24.793269
   3.54175    -24.793173
   3.49113    -24.792938
   3.44050    -24.792582
   3.38988    -24.792027
   3.33926    -24.791240
   3.28864    -24.790376
   3.23802    -24.789283
   3.18740    -24.787916
   3.13678    -24.786255
   3.08616    -24.784404
   3.03554    -24.782306
   2.98492    -24.780033
   2.93430    -24.777560
   2.88368    -24.774991
   2.83305    -24.772546
   2.78243    -24.770413
   2.73181    -24.768906
   2.68119    -24.768252
   2.68119    -24.768252
   2.61919    -24.768693
   2.55720    -24.769625
   2.49520    -24.771204
   2.43320    -24.773438
   2.37120    -24.776213
   2.30921    -24.779568
   2.24721    -24.783452
   2.18521    -24.787839
   2.12321    -24.792484
   2.06122    -24.797272
   1.99922    -24.800285
   1.93722    -24.801656
   1.87522    -24.802676
   1.81323    -24.803384
   1.75123    -24.803832
   1.68923    -24.804075
   1.62723    -24.804087
   1.56524    -24.803961
   1.50324    -24.803732
   1.50324    -24.803732
   1.48257    -24.803646
   1.46191    -24.803558
   1.44124    -24.803491
   1.42057    -24.803503
   1.39991    -24.803410
   1.37924    -24.803318
   1.35858    -24.803210
   1.33791    -24.803124
   1.31724    -24.803051
   1.29658    -24.802975
   1.27591    -24.802873
   1.25525    -24.802810
   1.23458    -24.802754
   1.21392    -24.802709
   1.19325    -24.802668
   1.17258    -24.802635
   1.15192    -24.802612
   1.13125    -24.802598
   1.11059    -24.802592
   1.11059    -24.802592
   1.05213    -24.802391
   0.99368    -24.801812
   0.93523    -24.800859
   0.87678    -24.799512
   0.81833    -24.797817
   0.75987    -24.795791
   0.70142    -24.793472
   0.64297    -24.791061
   0.58452    -24.788293
   0.52607    -24.785517
   0.46762    -24.782705
   0.40916    -24.779926
   0.35071    -24.777204
   0.29226    -24.774770
   0.23381    -24.772551
   0.17536    -24.770786
   0.11690    -24.769477
   0.05845    -24.768664
   0.00000    -24.768252
 
# Band-Index    3
   0.00000    -24.768251
   0.05845    -24.768663
   0.11690    -24.769476
   0.17536    -24.770785
   0.23381    -24.772550
   0.29226    -24.774770
   0.35071    -24.777204
   0.40916    -24.778898
   0.46762    -24.778502
   0.52607    -24.777268
   0.58452    -24.775173
   0.64297    -24.772214
   0.70142    -24.768402
   0.75987    -24.763732
   0.81833    -24.758107
   0.87678    -24.751722
   0.93523    -24.744531
   0.99368    -24.736507
   1.05213    -24.727837
   1.11059    -24.718499
   1.11059    -24.718499
   1.13125    -24.718489
   1.15192    -24.718460
   1.17258    -24.718411
   1.19325    -24.718353
   1.21392    -24.718268
   1.23458    -24.718166
   1.25525    -24.718026
   1.27591    -24.717893
   1.29658    -24.717746
   1.31724    -24.717586
   1.33791    -24.717400
   1.35858    -24.717223
   1.37924    -24.717067
   1.39991    -24.716878
   1.42057    -24.716694
   1.44124    -24.716503
   1.46191    -24.716314
   1.48257    -24.716123
   1.50324    -24.715956
   1.50324    -24.715956
   1.56524    -24.715609
   1.62723    -24.715499
   1.68923    -24.715861
   1.75123    -24.716966
   1.81323    -24.719230
   1.87522    -24.723110
   1.93722    -24.728775
   1.99922    -24.735555
   2.06122    -24.742481
   2.12321    -24.749222
   2.18521    -24.755080
   2.24721    -24.759907
   2.30921    -24.763631
   2.37120    -24.766214
   2.43320    -24.767780
   2.49520    -24.768449
   2.55720    -24.768600
   2.61919    -24.768475
   2.68119    -24.768251
   2.68119    -24.768251
   2.73181    -24.768242
   2.78243    -24.767904
   2.83305    -24.767345
   2.88368    -24.766669
   2.93430    -24.765768
   2.98492    -24.764672
   3.03554    -24.763428
   3.08616    -24.762087
   3.13678    -24.760686
   3.18740    -24.759177
   3.23802    -24.757856
   3.28864    -24.756488
   3.33926    -24.755291
   3.38988    -24.754166
   3.44050    -24.753167
   3.49113    -24.752067
   3.54175    -24.751475
   3.59237    -24.751137
   3.64299    -24.751014
   3.64299    -24.751014
   3.68432    -24.750277
   3.72565    -24.748231
   3.76698    -24.745230
   3.80831    -24.741675
   3.84965    -24.737860
   3.89098    -24.733952
   3.93231    -24.730104
   3.97364    -24.726351
   4.01497    -24.722604
   4.05631    -24.718878
   4.09764    -24.715021
   4.13897    -24.711039
   4.18030    -24.706878
   4.22163    -24.702449
   4.26296    -24.697725
   4.30430    -24.692733
   4.34563    -24.687341
   4.38696    -24.681652
   4.42829    -24.675631
   4.42829    -24.675631
   4.45752    -24.676036
   4.48674    -24.677141
   4.51597    -24.679002
   4.54519    -24.681430
   4.57442    -24.684257
   4.60365    -24.687377
   4.63287    -24.690646
   4.66210    -24.694045
   4.69132    -24.697491
   4.72055    -24.700844
   4.74978    -24.704043
   4.77900    -24.707082
   4.80823    -24.709823
   4.83745    -24.712315
   4.86668    -24.714451
   4.89591    -24.716195
   4.92513    -24.717461
   4.95436    -24.718237
   4.98358    -24.718499
 
# Band-Index    4
   4.98358    -24.718496
   4.95436    -24.718235
   4.92513    -24.717459
   4.89591    -24.716193
   4.86668    -24.714449
   4.83745    -24.712313
   4.80823    -24.709821
   4.77900    -24.707080
   4.74978    -24.704041
   4.72055    -24.700842
   4.69132    -24.697489
   4.66210    -24.694043
   4.63287    -24.690644
   4.60365    -24.687376
   4.57442    -24.684255
   4.54519    -24.681429
   4.51597    -24.679000
   4.48674    -24.677140
   4.45752    -24.676035
   4.42829    -24.675630
   4.42829    -24.675630
   4.38696    -24.669290
   4.34563    -24.662762
   4.30430    -24.656553
   4.26296    -24.652766
   4.22163    -24.654554
   4.18030    -24.658447
   4.13897    -24.662630
   4.09764    -24.666753
   4.05631    -24.670791
   4.01497    -24.674642
   3.97364    -24.678231
   3.93231    -24.681485
   3.89098    -24.684462
   3.84965    -24.687076
   3.80831    -24.689249
   3.76698    -24.691002
   3.72565    -24.692324
   3.68432    -24.693092
   3.64299    -24.693352
   3.64299    -24.693352
   3.59237    -24.693462
   3.54175    -24.693722
   3.49113    -24.694342
   3.44050    -24.695266
   3.38988    -24.696457
   3.33926    -24.697999
   3.28864    -24.699992
   3.23802    -24.702325
   3.18740    -24.705043
   3.13678    -24.708118
   3.08616    -24.711469
   3.03554    -24.715155
   2.98492    -24.719015
   2.93430    -24.722864
   2.88368    -24.726611
   2.83305    -24.730079
   2.78243    -24.732975
   2.73181    -24.734947
   2.68119    -24.735655
   2.68119    -24.735655
   2.61919    -24.734899
   2.55720    -24.732775
   2.49520    -24.729644
   2.43320    -24.725916
   2.37120    -24.721872
   2.30921    -24.717819
   2.24721    -24.713912
   2.18521    -24.710264
   2.12321    -24.706788
   2.06122    -24.703368
   1.99922    -24.699638
   1.93722    -24.694951
   1.87522    -24.688537
   1.81323    -24.679881
   1.75123    -24.669270
   1.68923    -24.657147
   1.62723    -24.644155
   1.56524    -24.642003
   1.50324    -24.656785
   1.50324    -24.656785
   1.48257    -24.661640
   1.46191    -24.666455
   1.44124    -24.671184
   1.42057    -24.675825
   1.39991    -24.680280
   1.37924    -24.684677
   1.35858    -24.688888
   1.33791    -24.692973
   1.31724    -24.696846
   1.29658    -24.700526
   1.27591    -24.703949
   1.25525    -24.707103
   1.23458    -24.709916
   1.21392    -24.712484
   1.19325    -24.714592
   1.17258    -24.716267
   1.15192    -24.717495
   1.13125    -24.718244
   1.11059    -24.718496
   1.11059    -24.718496
   1.05213    -24.708550
   0.99368    -24.698104
   0.93523    -24.687170
   0.87678    -24.675813
   0.81833    -24.665831
   0.75987    -24.674496
   0.70142    -24.682708
   0.64297    -24.690448
   0.58452    -24.697798
   0.52607    -24.704628
   0.46762    -24.710888
   0.40916    -24.716529
   0.35071    -24.721442
   0.29226    -24.725709
   0.23381    -24.729233
   0.17536    -24.732028
   0.11690    -24.734038
   0.05845    -24.735250
   0.00000    -24.735655
 
# Band-Index    5
   0.00000    -24.735655
   0.05845    -24.734174
   0.11690    -24.730112
   0.17536    -24.724195
   0.23381    -24.717034
   0.29226    -24.708817
   0.35071    -24.699948
   0.40916    -24.690501
   0.46762    -24.680518
   0.52607    -24.670129
   0.58452    -24.659420
   0.64297    -24.648472
   0.70142    -24.640226
   0.75987    -24.652252
   0.81833    -24.664137
   0.87678    -24.656989
   0.93523    -24.647927
   0.99368    -24.638731
   1.05213    -24.629421
   1.11059    -24.620085
   1.11059    -24.620085
   1.13125    -24.620119
   1.15192    -24.620221
   1.17258    -24.620389
   1.19325    -24.620623
   1.21392    -24.620923
   1.23458    -24.621289
   1.25525    -24.621696
   1.27591    -24.622194
   1.29658    -24.622757
   1.31724    -24.623382
   1.33791    -24.624045
   1.35858    -24.624800
   1.37924    -24.625618
   1.39991    -24.626494
   1.42057    -24.627434
   1.44124    -24.628424
   1.46191    -24.629435
   1.48257    -24.630494
   1.50324    -24.631660
   1.50324    -24.631660
   1.56524    -24.635523
   1.62723    -24.639804
   1.68923    -24.644511
   1.75123    -24.649651
   1.81323    -24.655164
   1.87522    -24.660850
   1.93722    -24.666928
   1.99922    -24.673274
   2.06122    -24.679762
   2.12321    -24.686466
   2.18521    -24.693235
   2.24721    -24.700023
   2.30921    -24.706754
   2.37120    -24.713367
   2.43320    -24.719773
   2.49520    -24.725634
   2.55720    -24.730693
   2.61919    -24.734303
   2.68119    -24.735655
   2.68119    -24.735655
   2.73181    -24.734947
   2.78243    -24.732975
   2.83305    -24.730079
   2.88368    -24.726611
   2.93430    -24.722864
   2.98492    -24.719015
   3.03554    -24.715155
   3.08616    -24.711469
   3.13678    -24.708118
   3.18740    -24.705043
   3.23802    -24.702325
   3.28864    -24.699992
   3.33926    -24.697999
   3.38988    -24.696457
   3.44050    -24.695266
   3.49113    -24.694342
   3.54175    -24.693722
   3.59237    -24.693462
   3.64299    -24.693352
   3.64299    -24.693352
   3.68432    -24.692964
   3.72565    -24.691797
   3.76698    -24.689810
   3.80831    -24.686993
   3.84965    -24.683426
   3.89098    -24.679020
   3.93231    -24.673882
   3.97364    -24.668113
   4.01497    -24.661843
   4.05631    -24.655217
   4.09764    -24.648330
   4.13897    -24.641351
   4.18030    -24.634370
   4.22163    -24.637581
   4.26296    -24.642248
   4.30430    -24.641041
   4.34563    -24.636978
   4.38696    -24.632384
   4.42829    -24.627621
   4.42829    -24.627621
   4.45752    -24.627453
   4.48674    -24.626935
   4.51597    -24.626243
   4.54519    -24.625441
   4.57442    -24.624607
   4.60365    -24.623812
   4.63287    -24.623093
   4.66210    -24.622481
   4.69132    -24.621981
   4.72055    -24.621537
   4.74978    -24.621168
   4.77900    -24.620869
   4.80823    -24.620654
   4.83745    -24.620465
   4.86668    -24.620288
   4.89591    -24.620219
   4.92513    -24.620144
   4.95436    -24.620100
   4.98358    -24.620085
 
# Band-Index    6
   4.98358    -24.620085
   4.95436    -24.620100
   4.92513    -24.620144
   4.89591    -24.620219
   4.86668    -24.620288
   4.83745    -24.620465
   4.80823    -24.620654
   4.77900    -24.620869
   4.74978    -24.621168
   4.72055    -24.621537
   4.69132    -24.621981
   4.66210    -24.622480
   4.63287    -24.623093
   4.60365    -24.623812
   4.57442    -24.624607
   4.54519    -24.625441
   4.51597    -24.626243
   4.48674    -24.626935
   4.45752    -24.627452
   4.42829    -24.627621
   4.42829    -24.627621
   4.38696    -24.622861
   4.34563    -24.618478
   4.30430    -24.616836
   4.26296    -24.621146
   4.22163    -24.627521
   4.18030    -24.630527
   4.13897    -24.622784
   4.09764    -24.614819
   4.05631    -24.606839
   4.01497    -24.598882
   3.97364    -24.591116
   3.93231    -24.583682
   3.89098    -24.576736
   3.84965    -24.570594
   3.80831    -24.565535
   3.76698    -24.561868
   3.72565    -24.559572
   3.68432    -24.558323
   3.64299    -24.557956
   3.64299    -24.557956
   3.59237    -24.557893
   3.54175    -24.557685
   3.49113    -24.557419
   3.44050    -24.556881
   3.38988    -24.556061
   3.33926    -24.554908
   3.28864    -24.553588
   3.23802    -24.551905
   3.18740    -24.549865
   3.13678    -24.547497
   3.08616    -24.544823
   3.03554    -24.541861
   2.98492    -24.538732
   2.93430    -24.535367
   2.88368    -24.531913
   2.83305    -24.528520
   2.78243    -24.525333
   2.73181    -24.522752
   2.68119    -24.521653
   2.68119    -24.521653
   2.61919    -24.524113
   2.55720    -24.529107
   2.49520    -24.534848
   2.43320    -24.540912
   2.37120    -24.547036
   2.30921    -24.553192
   2.24721    -24.559343
   2.18521    -24.565355
   2.12321    -24.571243
   2.06122    -24.576868
   1.99922    -24.582386
   1.93722    -24.587483
   1.87522    -24.592247
   1.81323    -24.596657
   1.75123    -24.600748
   1.68923    -24.612412
   1.62723    -24.627108
   1.56524    -24.630703
   1.50324    -24.617227
   1.50324    -24.617227
   1.48257    -24.613694
   1.46191    -24.614392
   1.44124    -24.615065
   1.42057    -24.615708
   1.39991    -24.616274
   1.37924    -24.616803
   1.35858    -24.617292
   1.33791    -24.617739
   1.31724    -24.618168
   1.29658    -24.618536
   1.27591    -24.618775
   1.25525    -24.619065
   1.23458    -24.619316
   1.21392    -24.619605
   1.19325    -24.619779
   1.17258    -24.619913
   1.15192    -24.620009
   1.13125    -24.620066
   1.11059    -24.620085
   1.11059    -24.620085
   1.05213    -24.610789
   0.99368    -24.601598
   0.93523    -24.592719
   0.87678    -24.603738
   0.81833    -24.614890
   0.75987    -24.626199
   0.70142    -24.637324
   0.64297    -24.628060
   0.58452    -24.615982
   0.52607    -24.604052
   0.46762    -24.592342
   0.40916    -24.580887
   0.35071    -24.569874
   0.29226    -24.559387
   0.23381    -24.549518
   0.17536    -24.540328
   0.11690    -24.532033
   0.05845    -24.525092
   0.00000    -24.521653
 
# Band-Index    7
   0.00000    -24.521653
   0.05845    -24.521239
   0.11690    -24.520007
   0.17536    -24.518003
   0.23381    -24.515704
   0.29226    -24.518972
   0.35071    -24.522887
   0.40916    -24.527466
   0.46762    -24.532667
   0.52607    -24.538465
   0.58452    -24.544826
   0.64297    -24.551738
   0.70142    -24.559172
   0.75987    -24.566984
   0.81833    -24.575195
   0.87678    -24.583730
   0.93523    -24.592543
   0.99368    -24.581882
   1.05213    -24.571365
   1.11059    -24.561214
   1.11059    -24.561214
   1.13125    -24.561432
   1.15192    -24.562086
   1.17258    -24.563164
   1.19325    -24.564661
   1.21392    -24.566522
   1.23458    -24.568733
   1.25525    -24.571261
   1.27591    -24.574089
   1.29658    -24.577186
   1.31724    -24.580515
   1.33791    -24.584040
   1.35858    -24.587762
   1.37924    -24.591658
   1.39991    -24.595679
   1.42057    -24.599860
   1.44124    -24.604096
   1.46191    -24.608418
   1.48257    -24.612779
   1.50324    -24.612954
   1.50324    -24.612954
   1.56524    -24.610530
   1.62723    -24.607659
   1.68923    -24.604393
   1.75123    -24.598198
   1.81323    -24.584824
   1.87522    -24.572873
   1.93722    -24.564478
   1.99922    -24.560481
   2.06122    -24.557618
   2.12321    -24.554686
   2.18521    -24.551353
   2.24721    -24.547554
   2.30921    -24.543402
   2.37120    -24.538968
   2.43320    -24.534446
   2.49520    -24.529996
   2.55720    -24.525988
   2.61919    -24.522903
   2.68119    -24.521653
   2.68119    -24.521653
   2.73181    -24.522752
   2.78243    -24.525333
   2.83305    -24.528520
   2.88368    -24.531913
   2.93430    -24.535367
   2.98492    -24.538732
   3.03554    -24.541861
   3.08616    -24.544823
   3.13678    -24.547497
   3.18740    -24.549865
   3.23802    -24.551905
   3.28864    -24.553588
   3.33926    -24.554908
   3.38988    -24.556061
   3.44050    -24.556881
   3.49113    -24.557419
   3.54175    -24.557685
   3.59237    -24.557893
   3.64299    -24.557956
   3.64299    -24.557956
   3.68432    -24.558264
   3.72565    -24.559321
   3.76698    -24.560812
   3.80831    -24.562844
   3.84965    -24.565353
   3.89098    -24.568247
   3.93231    -24.571498
   3.97364    -24.575175
   4.01497    -24.579112
   4.05631    -24.583289
   4.09764    -24.587657
   4.13897    -24.592191
   4.18030    -24.596835
   4.22163    -24.601463
   4.26296    -24.605846
   4.30430    -24.608536
   4.34563    -24.605475
   4.38696    -24.600114
   4.42829    -24.594644
   4.42829    -24.594644
   4.45752    -24.594415
   4.48674    -24.593626
   4.51597    -24.592501
   4.54519    -24.591035
   4.57442    -24.589121
   4.60365    -24.586890
   4.63287    -24.584387
   4.66210    -24.581770
   4.69132    -24.579025
   4.72055    -24.576273
   4.74978    -24.573575
   4.77900    -24.571008
   4.80823    -24.568633
   4.83745    -24.566504
   4.86668    -24.564682
   4.89591    -24.563186
   4.92513    -24.562102
   4.95436    -24.561437
   4.98358    -24.561214
 
# Band-Index    8
   4.98358    -24.561212
   4.95436    -24.561436
   4.92513    -24.562100
   4.89591    -24.563185
   4.86668    -24.564680
   4.83745    -24.566503
   4.80823    -24.568631
   4.77900    -24.571006
   4.74978    -24.573574
   4.72055    -24.576272
   4.69132    -24.579023
   4.66210    -24.581769
   4.63287    -24.584385
   4.60365    -24.586889
   4.57442    -24.589120
   4.54519    -24.591034
   4.51597    -24.592500
   4.48674    -24.593625
   4.45752    -24.594414
   4.42829    -24.594643
   4.42829    -24.594643
   4.38696    -24.589416
   4.34563    -24.584499
   4.30430    -24.580018
   4.26296    -24.575903
   4.22163    -24.572193
   4.18030    -24.568853
   4.13897    -24.565818
   4.09764    -24.563066
   4.05631    -24.560676
   4.01497    -24.558520
   3.97364    -24.556597
   3.93231    -24.554818
   3.89098    -24.553129
   3.84965    -24.551335
   3.80831    -24.549286
   3.76698    -24.546937
   3.72565    -24.544580
   3.68432    -24.542755
   3.64299    -24.542093
   3.64299    -24.542093
   3.59237    -24.541947
   3.54175    -24.541512
   3.49113    -24.540828
   3.44050    -24.539926
   3.38988    -24.538694
   3.33926    -24.537313
   3.28864    -24.535816
   3.23802    -24.534214
   3.18740    -24.532516
   3.13678    -24.530864
   3.08616    -24.529231
   3.03554    -24.527673
   2.98492    -24.526275
   2.93430    -24.524937
   2.88368    -24.523756
   2.83305    -24.522832
   2.78243    -24.522184
   2.73181    -24.521787
   2.68119    -24.521651
   2.68119    -24.521651
   2.61919    -24.521185
   2.55720    -24.519781
   2.49520    -24.517489
   2.43320    -24.514388
   2.37120    -24.510320
   2.30921    -24.512393
   2.24721    -24.516498
   2.18521    -24.522010
   2.12321    -24.528825
   2.06122    -24.536867
   1.99922    -24.545873
   1.93722    -24.554400
   1.87522    -24.559204
   1.81323    -24.561020
   1.75123    -24.561984
   1.68923    -24.562406
   1.62723    -24.562546
   1.56524    -24.562501
   1.50324    -24.562317
   1.50324    -24.562317
   1.48257    -24.562247
   1.46191    -24.562174
   1.44124    -24.562103
   1.42057    -24.562028
   1.39991    -24.561945
   1.37924    -24.561864
   1.35858    -24.561760
   1.33791    -24.561683
   1.31724    -24.561609
   1.29658    -24.561541
   1.27591    -24.561476
   1.25525    -24.561418
   1.23458    -24.561366
   1.21392    -24.561322
   1.19325    -24.561285
   1.17258    -24.561252
   1.15192    -24.561231
   1.13125    -24.561218
   1.11059    -24.561212
   1.11059    -24.561212
   1.05213    -24.551500
   0.99368    -24.542360
   0.93523    -24.533754
   0.87678    -24.525799
   0.81833    -24.518562
   0.75987    -24.512113
   0.70142    -24.506496
   0.64297    -24.501777
   0.58452    -24.497955
   0.52607    -24.495344
   0.46762    -24.499869
   0.40916    -24.504272
   0.35071    -24.508359
   0.29226    -24.512088
   0.23381    -24.515329
   0.17536    -24.518002
   0.11690    -24.520006
   0.05845    -24.521238
   0.00000    -24.521651
 
# Band-Index    9
   0.00000    -24.509811
   0.05845    -24.510247
   0.11690    -24.511346
   0.17536    -24.513170
   0.23381    -24.515329
   0.29226    -24.512087
   0.35071    -24.508358
   0.40916    -24.504271
   0.46762    -24.499868
   0.52607    -24.495343
   0.58452    -24.490825
   0.64297    -24.486456
   0.70142    -24.482279
   0.75987    -24.478538
   0.81833    -24.475086
   0.87678    -24.472206
   0.93523    -24.469898
   0.99368    -24.468198
   1.05213    -24.467150
   1.11059    -24.466804
   1.11059    -24.466804
   1.13125    -24.466801
   1.15192    -24.466792
   1.17258    -24.466778
   1.19325    -24.466759
   1.21392    -24.466735
   1.23458    -24.466705
   1.25525    -24.466656
   1.27591    -24.466620
   1.29658    -24.466582
   1.31724    -24.466540
   1.33791    -24.466515
   1.35858    -24.466474
   1.37924    -24.466453
   1.39991    -24.466414
   1.42057    -24.466378
   1.44124    -24.466346
   1.46191    -24.466271
   1.48257    -24.466251
   1.50324    -24.466240
   1.50324    -24.466240
   1.56524    -24.466271
   1.62723    -24.466431
   1.68923    -24.466754
   1.75123    -24.467286
   1.81323    -24.468064
   1.87522    -24.469111
   1.93722    -24.470472
   1.99922    -24.475460
   2.06122    -24.481602
   2.12321    -24.487976
   2.18521    -24.494207
   2.24721    -24.500097
   2.30921    -24.505524
   2.37120    -24.509670
   2.43320    -24.508193
   2.49520    -24.507804
   2.55720    -24.508338
   2.61919    -24.509317
   2.68119    -24.509811
   2.68119    -24.509811
   2.73181    -24.508852
   2.78243    -24.506531
   2.83305    -24.503754
   2.88368    -24.500907
   2.93430    -24.498173
   2.98492    -24.495598
   3.03554    -24.493181
   3.08616    -24.490989
   3.13678    -24.489032
   3.18740    -24.487333
   3.23802    -24.485859
   3.28864    -24.484590
   3.33926    -24.483525
   3.38988    -24.482708
   3.44050    -24.482038
   3.49113    -24.481495
   3.54175    -24.481145
   3.59237    -24.481017
   3.64299    -24.480950
   3.64299    -24.480950
   3.68432    -24.480776
   3.72565    -24.480257
   3.76698    -24.479425
   3.80831    -24.478309
   3.84965    -24.476961
   3.89098    -24.475438
   3.93231    -24.473791
   3.97364    -24.472039
   4.01497    -24.470231
   4.05631    -24.468427
   4.09764    -24.466593
   4.13897    -24.464795
   4.18030    -24.463052
   4.22163    -24.461336
   4.26296    -24.459724
   4.30430    -24.458234
   4.34563    -24.456866
   4.38696    -24.455736
   4.42829    -24.454718
   4.42829    -24.454718
   4.45752    -24.454787
   4.48674    -24.454924
   4.51597    -24.455266
   4.54519    -24.455752
   4.57442    -24.456343
   4.60365    -24.457046
   4.63287    -24.457832
   4.66210    -24.458717
   4.69132    -24.459680
   4.72055    -24.460667
   4.74978    -24.461669
   4.77900    -24.462664
   4.80823    -24.463630
   4.83745    -24.464516
   4.86668    -24.465287
   4.89591    -24.465921
   4.92513    -24.466404
   4.95436    -24.466703
   4.98358    -24.466804
 
# Band-Index   10
   4.98358    -24.466803
   4.95436    -24.466702
   4.92513    -24.466403
   4.89591    -24.465920
   4.86668    -24.465286
   4.83745    -24.464515
   4.80823    -24.463629
   4.77900    -24.462662
   4.74978    -24.461668
   4.72055    -24.460666
   4.69132    -24.459678
   4.66210    -24.458715
   4.63287    -24.457830
   4.60365    -24.457044
   4.57442    -24.456342
   4.54519    -24.455750
   4.51597    -24.455264
   4.48674    -24.454922
   4.45752    -24.454785
   4.42829    -24.454717
   4.42829    -24.454717
   4.38696    -24.453872
   4.34563    -24.453257
   4.30430    -24.452951
   4.26296    -24.452873
   4.22163    -24.453137
   4.18030    -24.453712
   4.13897    -24.454598
   4.09764    -24.455874
   4.05631    -24.457532
   4.01497    -24.459534
   3.97364    -24.461884
   3.93231    -24.464528
   3.89098    -24.467406
   3.84965    -24.470461
   3.80831    -24.473505
   3.76698    -24.476375
   3.72565    -24.478753
   3.68432    -24.480379
   3.64299    -24.480950
   3.64299    -24.480950
   3.59237    -24.481017
   3.54175    -24.481145
   3.49113    -24.481495
   3.44050    -24.482038
   3.38988    -24.482708
   3.33926    -24.483525
   3.28864    -24.484590
   3.23802    -24.485859
   3.18740    -24.487333
   3.13678    -24.489032
   3.08616    -24.490989
   3.03554    -24.493181
   2.98492    -24.495598
   2.93430    -24.498173
   2.88368    -24.500907
   2.83305    -24.503754
   2.78243    -24.506531
   2.73181    -24.508852
   2.68119    -24.509811
   2.68119    -24.509811
   2.61919    -24.507646
   2.55720    -24.503323
   2.49520    -24.498675
   2.43320    -24.494168
   2.37120    -24.489899
   2.30921    -24.485968
   2.24721    -24.482444
   2.18521    -24.479321
   2.12321    -24.476543
   2.06122    -24.474152
   1.99922    -24.472160
   1.93722    -24.469497
   1.87522    -24.464141
   1.81323    -24.459538
   1.75123    -24.455838
   1.68923    -24.453179
   1.62723    -24.451600
   1.56524    -24.451177
   1.50324    -24.451860
   1.50324    -24.451860
   1.48257    -24.452337
   1.46191    -24.452944
   1.44124    -24.453656
   1.42057    -24.454462
   1.39991    -24.455306
   1.37924    -24.456261
   1.35858    -24.457250
   1.33791    -24.458312
   1.31724    -24.459424
   1.29658    -24.460527
   1.27591    -24.461578
   1.25525    -24.462632
   1.23458    -24.463624
   1.21392    -24.464539
   1.19325    -24.465321
   1.17258    -24.465940
   1.15192    -24.466413
   1.13125    -24.466704
   1.11059    -24.466803
   1.11059    -24.466803
   1.05213    -24.467149
   0.99368    -24.468197
   0.93523    -24.469897
   0.87678    -24.472205
   0.81833    -24.475085
   0.75987    -24.478537
   0.70142    -24.482278
   0.64297    -24.486456
   0.58452    -24.490824
   0.52607    -24.495122
   0.46762    -24.493281
   0.40916    -24.492366
   0.35071    -24.492505
   0.29226    -24.493708
   0.23381    -24.495977
   0.17536    -24.499069
   0.11690    -24.503011
   0.05845    -24.507323
   0.00000    -24.509811
 
# Band-Index   11
   0.00000    -12.827967
   0.05845    -12.816649
   0.11690    -12.782652
   0.17536    -12.726034
   0.23381    -12.646902
   0.29226    -12.545330
   0.35071    -12.421482
   0.40916    -12.275546
   0.46762    -12.107716
   0.52607    -11.918287
   0.58452    -11.707562
   0.64297    -11.475889
   0.70142    -11.223730
   0.75987    -10.951537
   0.81833    -10.659847
   0.87678    -10.349309
   0.93523    -10.020566
   0.99368     -9.674391
   1.05213     -9.311631
   1.11059     -8.933157
   1.11059     -8.933157
   1.13125     -8.934150
   1.15192     -8.937147
   1.17258     -8.942187
   1.19325     -8.949336
   1.21392     -8.958683
   1.23458     -8.970344
   1.25525     -8.984452
   1.27591     -9.001158
   1.29658     -9.020626
   1.31724     -9.043031
   1.33791     -9.068554
   1.35858     -9.097371
   1.37924     -9.129653
   1.39991     -9.165558
   1.42057     -9.205212
   1.44124     -9.248714
   1.46191     -9.296134
   1.48257     -9.347498
   1.50324     -9.402791
   1.50324     -9.402791
   1.56524     -9.591424
   1.62723     -9.810709
   1.68923    -10.054011
   1.75123    -10.313414
   1.81323    -10.580920
   1.87522    -10.849344
   1.93722    -11.112668
   1.99922    -11.365974
   2.06122    -11.605449
   2.12321    -11.828124
   2.18521    -12.031658
   2.24721    -12.214324
   2.30921    -12.374742
   2.37120    -12.511892
   2.43320    -12.625026
   2.49520    -12.713529
   2.55720    -12.777029
   2.61919    -12.815235
   2.68119    -12.827967
   2.68119    -12.827967
   2.73181    -12.819483
   2.78243    -12.794008
   2.83305    -12.751629
   2.88368    -12.692530
   2.93430    -12.616912
   2.98492    -12.525077
   3.03554    -12.417491
   3.08616    -12.294745
   3.13678    -12.157638
   3.18740    -12.007314
   3.23802    -11.845349
   3.28864    -11.673933
   3.33926    -11.496256
   3.38988    -11.316956
   3.44050    -11.142702
   3.49113    -10.983126
   3.54175    -10.851309
   3.59237    -10.762723
   3.64299    -10.731256
   3.64299    -10.731256
   3.68432    -10.725476
   3.72565    -10.708149
   3.76698    -10.679302
   3.80831    -10.638993
   3.84965    -10.587305
   3.89098    -10.524339
   3.93231    -10.450236
   3.97364    -10.365173
   4.01497    -10.269373
   4.05631    -10.163115
   4.09764    -10.046746
   4.13897     -9.920699
   4.18030     -9.785509
   4.22163     -9.641841
   4.26296     -9.490532
   4.30430     -9.332624
   4.34563     -9.169394
   4.38696     -9.002443
   4.42829     -8.833740
   4.42829     -8.833740
   4.45752     -8.834455
   4.48674     -8.836574
   4.51597     -8.840034
   4.54519     -8.844724
   4.57442     -8.850504
   4.60365     -8.857194
   4.63287     -8.864592
   4.66210     -8.872482
   4.69132     -8.880640
   4.72055     -8.888839
   4.74978     -8.896859
   4.77900     -8.904487
   4.80823     -8.911526
   4.83745     -8.917798
   4.86668     -8.923151
   4.89591     -8.927450
   4.92513     -8.930595
   4.95436     -8.932513
   4.98358     -8.933157
 
# Band-Index   12
   4.98358     -8.933155
   4.95436     -8.932511
   4.92513     -8.930593
   4.89591     -8.927448
   4.86668     -8.923149
   4.83745     -8.917797
   4.80823     -8.911524
   4.77900     -8.904485
   4.74978     -8.896857
   4.72055     -8.888838
   4.69132     -8.880638
   4.66210     -8.872480
   4.63287     -8.864590
   4.60365     -8.857192
   4.57442     -8.850503
   4.54519     -8.844722
   4.51597     -8.840032
   4.48674     -8.836572
   4.45752     -8.834453
   4.42829     -8.833738
   4.42829     -8.833738
   4.38696     -8.665689
   4.34563     -8.501165
   4.30430     -8.343497
   4.26296     -8.196282
   4.22163     -8.063157
   4.18030     -7.947320
   4.13897     -7.851006
   4.09764     -7.775061
   4.05631     -7.718777
   4.01497     -7.680087
   3.97364     -7.656063
   3.93231     -7.643421
   3.89098     -7.638958
   3.84965     -7.639814
   3.80831     -7.643587
   3.76698     -7.648383
   3.72565     -7.652779
   3.68432     -7.655796
   3.64299     -7.656865
   3.64299     -7.656865
   3.59237     -7.608052
   3.54175     -7.467419
   3.49113     -7.248968
   3.44050     -6.968428
   3.38988     -6.639135
   3.33926     -6.271098
   3.28864     -5.871550
   3.23802     -5.445752
   3.18740     -4.997658
   3.13678     -4.530477
   3.08616     -4.047030
   3.03554     -3.549948
   2.98492     -3.041985
   2.93430     -2.526252
   2.88368     -2.006434
   2.83305     -1.487300
   2.78243     -0.975417
   2.73181     -0.480587
   2.68119     -0.044006
   2.68119     -0.044006
   2.61919     -0.580573
   2.55720     -1.171583
   2.49520     -1.768501
   2.43320     -2.358533
   2.37120     -2.934213
   2.30921     -3.490964
   2.24721     -4.025842
   2.18521     -4.536803
   2.12321     -5.022395
   2.06122     -5.481566
   1.99922     -5.913561
   1.93722     -6.317761
   1.87522     -6.693709
   1.81323     -7.041053
   1.75123     -7.359542
   1.68923     -7.648970
   1.62723     -7.909179
   1.56524     -8.140065
   1.50324     -8.341555
   1.50324     -8.341555
   1.48257     -8.402177
   1.46191     -8.459527
   1.44124     -8.513602
   1.42057     -8.564402
   1.39991     -8.611926
   1.37924     -8.656174
   1.35858     -8.697145
   1.33791     -8.734840
   1.31724     -8.769258
   1.29658     -8.800399
   1.27591     -8.828262
   1.25525     -8.852847
   1.23458     -8.874155
   1.21392     -8.892184
   1.19325     -8.906935
   1.17258     -8.918408
   1.15192     -8.926602
   1.13125     -8.931518
   1.11059     -8.933155
   1.11059     -8.933155
   1.05213     -8.539957
   0.99368     -8.133052
   0.93523     -7.713492
   0.87678     -7.282402
   0.81833     -6.840857
   0.75987     -6.389925
   0.70142     -5.930659
   0.64297     -5.463969
   0.58452     -4.990691
   0.52607     -4.511562
   0.46762     -4.027133
   0.40916     -3.537882
   0.35071     -3.044196
   0.29226     -2.546399
   0.23381     -2.044884
   0.17536     -1.540164
   0.11690     -1.033021
   0.05845     -0.524881
   0.00000     -0.044006
 
# Band-Index   13
   0.00000     -0.043990
   0.05845     -0.102402
   0.11690     -0.259836
   0.17536     -0.480346
   0.23381     -0.733012
   0.29226     -0.997707
   0.35071     -1.262261
   0.40916     -1.519235
   0.46762     -1.763900
   0.52607     -1.993103
   0.58452     -2.204641
   0.64297     -2.396912
   0.70142     -2.568716
   0.75987     -2.719140
   0.81833     -2.847462
   0.87678     -2.953132
   0.93523     -3.035731
   0.99368     -3.094943
   1.05213     -3.130557
   1.11059     -3.142442
   1.11059     -3.142442
   1.13125     -3.151264
   1.15192     -3.177265
   1.17258     -3.219133
   1.19325     -3.274912
   1.21392     -3.342250
   1.23458     -3.418668
   1.25525     -3.501728
   1.27591     -3.589159
   1.29658     -3.678919
   1.31724     -3.769213
   1.33791     -3.858481
   1.35858     -3.945379
   1.37924     -4.028757
   1.39991     -4.107646
   1.42057     -4.181219
   1.44124     -4.248791
   1.46191     -4.309807
   1.48257     -4.363826
   1.50324     -4.410515
   1.50324     -4.410515
   1.56524     -4.504631
   1.62723     -4.528966
   1.68923     -4.486284
   1.75123     -4.382125
   1.81323     -4.223042
   1.87522     -4.015565
   1.93722     -3.765691
   1.99922     -3.478880
   2.06122     -3.160208
   2.12321     -2.814695
   2.18521     -2.447624
   2.24721     -2.065100
   2.30921     -1.674693
   2.37120     -1.286369
   2.43320     -0.913702
   2.49520     -0.575551
   2.55720     -0.297441
   2.61919     -0.110516
   2.68119     -0.043990
   2.68119     -0.043990
   2.73181     -0.062735
   2.78243     -0.116340
   2.83305     -0.198104
   2.88368     -0.299750
   2.93430     -0.413503
   2.98492     -0.532966
   3.03554     -0.653262
   3.08616     -0.770795
   3.13678     -0.882932
   3.18740     -0.987766
   3.23802     -1.083908
   3.28864     -1.170349
   3.33926     -1.246342
   3.38988     -1.311344
   3.44050     -1.364963
   3.49113     -1.406915
   3.54175     -1.437008
   3.59237     -1.455110
   3.64299     -1.461152
   3.64299     -1.461152
   3.68432     -1.546181
   3.72565     -1.759413
   3.76698     -2.035651
   3.80831     -2.335228
   3.84965     -2.637737
   3.89098     -2.931584
   3.93231     -3.208970
   3.97364     -3.463739
   4.01497     -3.690565
   4.05631     -3.884752
   4.09764     -4.042415
   4.13897     -4.160871
   4.18030     -4.239002
   4.22163     -4.277430
   4.26296     -4.278339
   4.30430     -4.245024
   4.34563     -4.181344
   4.38696     -4.091277
   4.42829     -3.978636
   4.42829     -3.978636
   4.45752     -3.974066
   4.48674     -3.960423
   4.51597     -3.937910
   4.54519     -3.906856
   4.57442     -3.867736
   4.60365     -3.821159
   4.63287     -3.767889
   4.66210     -3.708855
   4.69132     -3.645168
   4.72055     -3.578142
   4.74978     -3.509303
   4.77900     -3.440423
   4.80823     -3.373513
   4.83745     -3.310819
   4.86668     -3.254754
   4.89591     -3.207775
   4.92513     -3.172209
   4.95436     -3.149998
   4.98358     -3.142442
 
# Band-Index   14
   4.98358     -3.142435
   4.95436     -3.149991
   4.92513     -3.172202
   4.89591     -3.207768
   4.86668     -3.254747
   4.83745     -3.310813
   4.80823     -3.373507
   4.77900     -3.440417
   4.74978     -3.509297
   4.72055     -3.578136
   4.69132     -3.645163
   4.66210     -3.708850
   4.63287     -3.767884
   4.60365     -3.821154
   4.57442     -3.867731
   4.54519     -3.906851
   4.51597     -3.937905
   4.48674     -3.960418
   4.45752     -3.974061
   4.42829     -3.978631
   4.42829     -3.978631
   4.38696     -3.846946
   4.34563     -3.699453
   4.30430     -3.539148
   4.26296     -3.368840
   4.22163     -3.191260
   4.18030     -3.009125
   4.13897     -2.825206
   4.09764     -2.642363
   4.05631     -2.463547
   4.01497     -2.291750
   3.97364     -2.129962
   3.93231     -1.981041
   3.89098     -1.847585
   3.84965     -1.731793
   3.80831     -1.635365
   3.76698     -1.559502
   3.72565     -1.504952
   3.68432     -1.472112
   3.64299     -1.461152
   3.64299     -1.461152
   3.59237     -1.455110
   3.54175     -1.437007
   3.49113     -1.406915
   3.44050     -1.364963
   3.38988     -1.311344
   3.33926     -1.246342
   3.28864     -1.170349
   3.23802     -1.083908
   3.18740     -0.987766
   3.13678     -0.882932
   3.08616     -0.770795
   3.03554     -0.653262
   2.98492     -0.532966
   2.93430     -0.413503
   2.88368     -0.299750
   2.83305     -0.198104
   2.78243     -0.116340
   2.73181     -0.062735
   2.68119     -0.043990
   2.68119     -0.043990
   2.61919     -0.052872
   2.55720     -0.079837
   2.49520     -0.125743
   2.43320     -0.191770
   2.37120     -0.279070
   2.30921     -0.388380
   2.24721     -0.519600
   2.18521     -0.671548
   2.12321     -0.841867
   2.06122     -1.027196
   1.99922     -1.223472
   1.93722     -1.426299
   1.87522     -1.631255
   1.81323     -1.834126
   1.75123     -2.031101
   1.68923     -2.218811
   1.62723     -2.394349
   1.56524     -2.555260
   1.50324     -2.699502
   1.50324     -2.699502
   1.48257     -2.743579
   1.46191     -2.785560
   1.44124     -2.825395
   1.42057     -2.863035
   1.39991     -2.898439
   1.37924     -2.931565
   1.35858     -2.962377
   1.33791     -2.990843
   1.31724     -3.016933
   1.29658     -3.040617
   1.27591     -3.061872
   1.25525     -3.080678
   1.23458     -3.097014
   1.21392     -3.110863
   1.19325     -3.122213
   1.17258     -3.131053
   1.15192     -3.137374
   1.13125     -3.141169
   1.11059     -3.142435
   1.11059     -3.142435
   1.05213     -3.130550
   0.99368     -3.094936
   0.93523     -3.035724
   0.87678     -2.953125
   0.81833     -2.847455
   0.75987     -2.719133
   0.70142     -2.568709
   0.64297     -2.396905
   0.58452     -2.204634
   0.52607     -1.993096
   0.46762     -1.763892
   0.40916     -1.519227
   0.35071     -1.262253
   0.29226     -0.997699
   0.23381     -0.733003
   0.17536     -0.480337
   0.11690     -0.259826
   0.05845     -0.102392
   0.00000     -0.043990
 
# Band-Index   15
   0.00000      0.011392
   0.05845      0.488467
   0.11690      0.983300
   0.17536      1.461597
   0.23381      1.910148
   0.29226      1.771243
   0.35071      1.566124
   0.40916      1.367742
   0.46762      1.182124
   0.52607      1.013490
   0.58452      0.864845
   0.64297      0.738394
   0.70142      0.635822
   0.75987      0.558424
   0.81833      0.507244
   0.87678      0.483155
   0.93523      0.486874
   0.99368      0.519002
   1.05213      0.580016
   1.11059      0.670243
   1.11059      0.670243
   1.13125      0.671433
   1.15192      0.675004
   1.17258      0.680950
   1.19325      0.689261
   1.21392      0.699925
   1.23458      0.712927
   1.25525      0.728247
   1.27591      0.745860
   1.29658      0.765738
   1.31724      0.787848
   1.33791      0.812153
   1.35858      0.838608
   1.37924      0.867164
   1.39991      0.897766
   1.42057      0.930351
   1.44124      0.964849
   1.46191      1.001179
   1.48257      1.039252
   1.50324      1.078970
   1.50324      1.078970
   1.56524      1.206818
   1.62723      1.344632
   1.68923      1.487227
   1.75123      1.627606
   1.81323      1.756707
   1.87522      1.863741
   1.93722      1.937813
   1.99922      1.970960
   2.06122      1.961287
   2.12321      1.913581
   2.18521      1.836627
   2.24721      1.739288
   2.30921      1.627371
   2.37120      1.501137
   2.43320      1.352003
   2.49520      1.157292
   2.55720      0.878550
   2.61919      0.484117
   2.68119      0.011392
   2.68119      0.011392
   2.73181      0.391912
   2.78243      0.708598
   2.83305      0.905885
   2.88368      0.986327
   2.93430      0.982508
   2.98492      0.928878
   3.03554      0.849071
   3.08616      0.757401
   3.13678      0.662451
   3.18740      0.569496
   3.23802      0.481886
   3.28864      0.401783
   3.33926      0.330617
   3.38988      0.269334
   3.44050      0.218568
   3.49113      0.178742
   3.54175      0.150132
   3.59237      0.132905
   3.64299      0.127153
   3.64299      0.127153
   3.68432      0.211576
   3.72565      0.422315
   3.76698      0.692410
   3.80831      0.980021
   3.84965      1.263370
   3.89098      1.531610
   3.93231      1.780732
   3.97364      2.011352
   4.01497      2.226825
   4.05631      2.431586
   4.09764      2.630024
   4.13897      2.825917
   4.18030      3.022271
   4.22163      3.221340
   4.26296      3.424667
   4.30430      3.633053
   4.34563      3.846181
   4.38696      4.060582
   4.42829      4.254474
   4.42829      4.254474
   4.45752      4.087862
   4.48674      3.814737
   4.51597      3.531766
   4.54519      3.251686
   4.57442      2.978026
   4.60365      2.712523
   4.63287      2.456440
   4.66210      2.210939
   4.69132      1.977222
   4.72055      1.756613
   4.74978      1.550621
   4.77900      1.360959
   4.80823      1.189573
   4.83745      1.038632
   4.86668      0.910473
   4.89591      0.807493
   4.92513      0.731962
   4.95436      0.685785
   4.98358      0.670243
 
# Band-Index   16
   4.98358      0.670247
   4.95436      0.685789
   4.92513      0.731966
   4.89591      0.807496
   4.86668      0.910476
   4.83745      1.038635
   4.80823      1.189577
   4.77900      1.360962
   4.74978      1.550624
   4.72055      1.756616
   4.69132      1.977225
   4.66210      2.210942
   4.63287      2.456442
   4.60365      2.712525
   4.57442      2.978028
   4.54519      3.251688
   4.51597      3.531768
   4.48674      3.814740
   4.45752      4.087865
   4.42829      4.254478
   4.42829      4.254478
   4.38696      4.288573
   4.34563      4.146231
   4.30430      3.984687
   4.26296      3.832856
   4.22163      3.696660
   4.18030      3.578641
   4.13897      3.480480
   4.09764      3.403522
   4.05631      3.348863
   4.01497      3.317246
   3.97364      3.308859
   3.93231      3.323033
   3.89098      3.357840
   3.84965      3.409649
   3.80831      3.472692
   3.76698      3.538836
   3.72565      3.597924
   3.68432      3.639216
   3.64299      3.654094
   3.64299      3.654094
   3.59237      3.656694
   3.54175      3.663992
   3.49113      3.674452
   3.44050      3.685464
   3.38988      3.693301
   3.33926      3.693177
   3.28864      3.679516
   3.23802      3.646560
   3.18740      3.589410
   3.13678      3.505316
   3.08616      3.394705
   3.03554      3.261538
   2.98492      3.112799
   2.93430      2.957603
   2.88368      2.806399
   2.83305      2.670478
   2.78243      2.561505
   2.73181      2.490488
   2.68119      2.465753
   2.68119      2.465753
   2.61919      2.480061
   2.55720      2.522948
   2.49520      2.594354
   2.43320      2.694174
   2.37120      2.822256
   2.30921      2.978395
   2.24721      3.162343
   2.18521      3.373792
   2.12321      3.612366
   2.06122      3.877616
   1.99922      4.168996
   1.93722      4.485841
   1.87522      4.827328
   1.81323      5.192435
   1.75123      5.579836
   1.68923      5.987836
   1.62723      5.612187
   1.56524      4.820235
   1.50324      4.015039
   1.50324      4.015039
   1.48257      3.752174
   1.46191      3.493484
   1.44124      3.239654
   1.42057      2.991341
   1.39991      2.749220
   1.37924      2.514015
   1.35858      2.286534
   1.33791      2.067691
   1.31724      1.858538
   1.29658      1.660305
   1.27591      1.474431
   1.25525      1.302581
   1.23458      1.146666
   1.21392      1.008832
   1.19325      0.891405
   1.17258      0.796772
   1.15192      0.727201
   1.13125      0.684598
   1.11059      0.670247
   1.11059      0.670247
   1.05213      0.789823
   0.99368      0.938586
   0.93523      1.115933
   0.87678      1.320568
   0.81833      1.550085
   0.75987      1.800278
   0.70142      2.063928
   0.64297      2.328723
   0.58452      2.573948
   0.52607      2.766484
   0.46762      2.861147
   0.40916      2.816538
   0.35071      2.623077
   0.29226      2.307907
   0.23381      1.974399
   0.17536      2.163204
   0.11690      2.320924
   0.05845      2.427698
   0.00000      2.465753
 
# Band-Index   17
   0.00000      2.465760
   0.05845      2.538571
   0.11690      2.739159
   0.17536      3.031311
   0.23381      3.383682
   0.29226      3.775585
   0.35071      4.194190
   0.40916      4.631392
   0.46762      5.081764
   0.52607      5.541428
   0.58452      6.007382
   0.64297      6.477087
   0.70142      6.947965
   0.75987      7.416779
   0.81833      7.878672
   0.87678      8.325450
   0.93523      8.742324
   0.99368      9.102264
   1.05213      9.359410
   1.11059      9.455333
   1.11059      9.455333
   1.13125      9.440357
   1.15192      9.396697
   1.17258      9.327688
   1.19325      9.237701
   1.21392      9.131172
   1.23458      9.012030
   1.25525      8.883496
   1.27591      8.748104
   1.29658      8.607824
   1.31724      8.464185
   1.33791      8.318374
   1.35858      8.171341
   1.37924      8.023839
   1.39991      7.876487
   1.42057      7.729800
   1.44124      7.584218
   1.46191      7.440118
   1.48257      7.297831
   1.50324      7.157665
   1.50324      7.157665
   1.56524      6.752613
   1.62723      6.375993
   1.68923      6.034473
   1.75123      5.735181
   1.81323      5.485940
   1.87522      5.196309
   1.93722      4.828785
   1.99922      4.484472
   2.06122      4.165691
   2.12321      3.873365
   2.18521      3.607783
   2.24721      3.368832
   2.30921      3.156082
   2.37120      2.968927
   2.43320      2.806904
   2.49520      2.670510
   2.55720      2.562851
   2.61919      2.491291
   2.68119      2.465760
   2.68119      2.465760
   2.73181      2.490488
   2.78243      2.561505
   2.83305      2.670478
   2.88368      2.806399
   2.93430      2.957603
   2.98492      3.112799
   3.03554      3.261538
   3.08616      3.394705
   3.13678      3.505316
   3.18740      3.589410
   3.23802      3.646560
   3.28864      3.679516
   3.33926      3.693177
   3.38988      3.693301
   3.44050      3.685464
   3.49113      3.674452
   3.54175      3.663992
   3.59237      3.656694
   3.64299      3.654094
   3.64299      3.654094
   3.68432      3.676643
   3.72565      3.745019
   3.76698      3.861177
   3.80831      4.027536
   3.84965      4.245689
   3.89098      4.514713
   3.93231      4.829509
   3.97364      5.179049
   4.01497      5.542500
   4.05631      5.877310
   4.09764      6.097178
   4.13897      6.115056
   4.18030      5.909703
   4.22163      5.632776
   4.26296      5.362490
   4.30430      5.101557
   4.34563      4.855610
   4.38696      4.652923
   4.42829      4.649753
   4.42829      4.649753
   4.45752      4.822232
   4.48674      5.112936
   4.51597      5.425115
   4.54519      5.745908
   4.57442      6.071578
   4.60365      6.400079
   4.63287      6.729691
   4.66210      7.058575
   4.69132      7.384536
   4.72055      7.704800
   4.74978      8.015780
   4.77900      8.312802
   4.80823      8.589955
   4.83745      8.840087
   4.86668      9.055371
   4.89591      9.228525
   4.92513      9.354286
   4.95436      9.430079
   4.98358      9.455333
 
# Band-Index   18
   4.98358      9.455344
   4.95436      9.430090
   4.92513      9.354296
   4.89591      9.228536
   4.86668      9.055380
   4.83745      8.840095
   4.80823      8.589962
   4.77900      8.312808
   4.74978      8.015786
   4.72055      7.704805
   4.69132      7.384540
   4.66210      7.058579
   4.63287      6.729694
   4.60365      6.400082
   4.57442      6.071581
   4.54519      5.745910
   4.51597      5.425117
   4.48674      5.112938
   4.45752      4.822233
   4.42829      4.649753
   4.42829      4.649753
   4.38696      4.828078
   4.34563      5.046602
   4.30430      5.280472
   4.26296      5.521063
   4.22163      5.758346
   4.18030      5.972196
   4.13897      6.190667
   4.09764      6.472181
   4.05631      6.748845
   4.01497      7.011764
   3.97364      7.245944
   3.93231      7.427335
   3.89098      7.525084
   3.84965      7.520428
   3.80831      7.430946
   3.76698      7.301591
   3.72565      7.176912
   3.68432      7.089194
   3.64299      7.057775
   3.64299      7.057775
   3.59237      7.066208
   3.54175      7.090631
   3.49113      7.127730
   3.44050      7.168336
   3.38988      7.183276
   3.33926      7.076375
   3.28864      6.749117
   3.23802      6.306631
   3.18740      5.834482
   3.13678      5.357502
   3.08616      4.883856
   3.03554      4.418094
   2.98492      3.965636
   2.93430      3.536342
   2.88368      3.148664
   2.83305      2.831866
   2.78243      2.614695
   2.73181      2.499826
   2.68119      2.465760
   2.68119      2.465760
   2.61919      2.550321
   2.55720      2.806015
   2.49520      3.211631
   2.43320      3.702589
   2.37120      4.198187
   2.30921      4.620026
   2.24721      4.906143
   2.18521      5.044675
   2.12321      5.081962
   2.06122      5.083329
   1.99922      5.100970
   1.93722      5.166729
   1.87522      5.294610
   1.81323      5.580552
   1.75123      5.955596
   1.68923      6.135200
   1.62723      6.414143
   1.56524      6.855582
   1.50324      7.307595
   1.50324      7.307595
   1.48257      7.459531
   1.46191      7.611591
   1.44124      7.763393
   1.42057      7.914502
   1.39991      8.064408
   1.37924      8.212511
   1.35858      8.358105
   1.33791      8.500365
   1.31724      8.638323
   1.29658      8.770849
   1.27591      8.896635
   1.25525      9.014178
   1.23458      9.121794
   1.21392      9.217635
   1.19325      9.299754
   1.17258      9.366201
   1.15192      9.415179
   1.13125      9.445218
   1.11059      9.455344
   1.11059      9.455344
   1.05213      9.359421
   0.99368      9.102274
   0.93523      8.742334
   0.87678      8.325460
   0.81833      7.878681
   0.75987      7.416788
   0.70142      6.947973
   0.64297      6.477095
   0.58452      6.007391
   0.52607      5.541436
   0.46762      5.081772
   0.40916      4.631399
   0.35071      4.194197
   0.29226      3.775591
   0.23381      3.383688
   0.17536      3.031316
   0.11690      2.739164
   0.05845      2.538576
   0.00000      2.465760
