#K-Path(1/A) Energy-Level(eV)
# NKPTS & NBANDS: 100  18
# Band-Index    1
   0.00000    -25.401540
   0.02138    -25.401546
   0.04276    -25.401541
   0.06414    -25.401583
   0.08552    -25.401585
   0.10690    -25.401645
   0.12828    -25.401720
   0.14966    -25.401790
   0.17104    -25.401867
   0.19242    -25.401904
   0.21380    -25.401992
   0.23518    -25.402078
   0.25656    -25.402170
   0.27794    -25.402252
   0.29932    -25.402338
   0.32070    -25.402418
   0.34208    -25.402490
   0.36346    -25.402552
   0.38484    -25.402629
   0.40622    -25.402673
   0.40622    -25.402673
   0.43645    -25.402599
   0.46669    -25.402418
   0.49692    -25.402119
   0.52716    -25.401709
   0.55739    -25.401194
   0.58763    -25.400600
   0.61787    -25.399916
   0.64810    -25.399137
   0.67834    -25.398328
   0.70857    -25.397498
   0.73881    -25.396617
   0.76904    -25.395783
   0.79928    -25.394980
   0.82951    -25.394241
   0.85975    -25.393640
   0.88999    -25.393102
   0.92022    -25.392663
   0.95046    -25.392439
   0.98069    -25.392355
   0.98069    -25.392355
   1.04116    -25.392256
   1.10163    -25.392177
   1.16211    -25.391982
   1.22258    -25.391715
   1.28305    -25.391374
   1.34352    -25.390852
   1.40399    -25.390436
   1.46446    -25.390010
   1.52493    -25.389449
   1.58540    -25.388823
   1.64588    -25.388235
   1.70635    -25.387490
   1.76682    -25.386798
   1.82729    -25.386072
   1.88776    -25.385414
   1.94823    -25.384890
   2.00870    -25.384549
   2.06917    -25.384248
   2.12964    -25.384154
   2.12964    -25.384154
   2.18201    -25.384082
   2.23438    -25.383760
   2.28675    -25.383456
   2.33912    -25.382995
   2.39149    -25.382433
   2.44386    -25.381770
   2.49623    -25.381037
   2.54860    -25.380277
   2.60097    -25.379311
   2.65334    -25.378502
   2.70571    -25.377816
   2.75808    -25.377077
   2.81045    -25.376421
   2.86282    -25.375814
   2.91519    -25.375308
   2.96756    -25.374888
   3.01993    -25.374593
   3.07230    -25.374305
   3.12467    -25.374293
   3.12467    -25.374293
   3.16743    -25.374675
   3.21019    -25.375757
   3.25295    -25.377409
   3.29571    -25.379462
   3.33846    -25.381762
   3.38122    -25.384189
   3.42398    -25.386684
   3.46674    -25.389067
   3.50950    -25.391295
   3.55226    -25.393390
   3.59502    -25.395277
   3.63778    -25.396989
   3.68054    -25.398459
   3.72330    -25.399714
   3.76606    -25.400711
   3.80882    -25.401497
   3.85158    -25.402056
   3.89434    -25.402455
   3.93710    -25.402673
 
# Band-Index    2
   3.93710    -25.335412
   3.89434    -25.335688
   3.85158    -25.335863
   3.80882    -25.336050
   3.76606    -25.336186
   3.72330    -25.336250
   3.68054    -25.336281
   3.63778    -25.336284
   3.59502    -25.336246
   3.55226    -25.336204
   3.50950    -25.336135
   3.46674    -25.336068
   3.42398    -25.335967
   3.38122    -25.335895
   3.33846    -25.335803
   3.29571    -25.335715
   3.25295    -25.335719
   3.21019    -25.335676
   3.16743    -25.335675
   3.12467    -25.335667
   3.12467    -25.335667
   3.07230    -25.335598
   3.01993    -25.335543
   2.96756    -25.335366
   2.91519    -25.335215
   2.86282    -25.334967
   2.81045    -25.334637
   2.75808    -25.334298
   2.70571    -25.333769
   2.65334    -25.333140
   2.60097    -25.332447
   2.54860    -25.331625
   2.49623    -25.330747
   2.44386    -25.329864
   2.39149    -25.328941
   2.33912    -25.328053
   2.28675    -25.327345
   2.23438    -25.326673
   2.18201    -25.326305
   2.12964    -25.326179
   2.12964    -25.326179
   2.06917    -25.326214
   2.00870    -25.326377
   1.94823    -25.326479
   1.88776    -25.326627
   1.82729    -25.326814
   1.76682    -25.326981
   1.70635    -25.326973
   1.64588    -25.326968
   1.58540    -25.326785
   1.52493    -25.327221
   1.46446    -25.327713
   1.40399    -25.328172
   1.34352    -25.328680
   1.28305    -25.329361
   1.22258    -25.329863
   1.16211    -25.330281
   1.10163    -25.330596
   1.04116    -25.330756
   0.98069    -25.330888
   0.98069    -25.330888
   0.95046    -25.330906
   0.92022    -25.330933
   0.88999    -25.331072
   0.85975    -25.331229
   0.82951    -25.331388
   0.79928    -25.331652
   0.76904    -25.331967
   0.73881    -25.332306
   0.70857    -25.332716
   0.67834    -25.333109
   0.64810    -25.333508
   0.61787    -25.333924
   0.58763    -25.334276
   0.55739    -25.334592
   0.52716    -25.334873
   0.49692    -25.335092
   0.46669    -25.335259
   0.43645    -25.335362
   0.40622    -25.335412
   0.40622    -25.335412
   0.38484    -25.335467
   0.36346    -25.335445
   0.34208    -25.335424
   0.32070    -25.335364
   0.29932    -25.335268
   0.27794    -25.335139
   0.25656    -25.335027
   0.23518    -25.334843
   0.21380    -25.334643
   0.19242    -25.334429
   0.17104    -25.334249
   0.14966    -25.334027
   0.12828    -25.333816
   0.10690    -25.333576
   0.08552    -25.333384
   0.06414    -25.333257
   0.04276    -25.333115
   0.02138    -25.333087
   0.00000    -25.333065
 
# Band-Index    3
   0.00000    -25.308280
   0.02138    -25.308266
   0.04276    -25.308213
   0.06414    -25.308154
   0.08552    -25.308043
   0.10690    -25.307939
   0.12828    -25.307830
   0.14966    -25.307696
   0.17104    -25.307566
   0.19242    -25.307384
   0.21380    -25.307245
   0.23518    -25.307121
   0.25656    -25.307001
   0.27794    -25.306880
   0.29932    -25.306787
   0.32070    -25.306711
   0.34208    -25.306654
   0.36346    -25.306618
   0.38484    -25.306619
   0.40622    -25.306638
   0.40622    -25.306638
   0.43645    -25.306709
   0.46669    -25.306975
   0.49692    -25.307411
   0.52716    -25.308009
   0.55739    -25.308749
   0.58763    -25.309627
   0.61787    -25.310601
   0.64810    -25.311649
   0.67834    -25.312757
   0.70857    -25.313878
   0.73881    -25.314981
   0.76904    -25.316062
   0.79928    -25.317061
   0.82951    -25.317951
   0.85975    -25.318744
   0.88999    -25.319338
   0.92022    -25.319761
   0.95046    -25.320027
   0.98069    -25.320115
   0.98069    -25.320115
   1.04116    -25.320258
   1.10163    -25.320743
   1.16211    -25.321486
   1.22258    -25.322395
   1.28305    -25.323352
   1.34352    -25.324266
   1.40399    -25.325141
   1.46446    -25.325886
   1.52493    -25.326402
   1.58540    -25.326745
   1.64588    -25.326518
   1.70635    -25.326234
   1.76682    -25.326105
   1.82729    -25.325979
   1.88776    -25.325976
   1.94823    -25.326028
   2.00870    -25.326146
   2.06917    -25.326163
   2.12964    -25.326179
   2.12964    -25.326179
   2.18201    -25.326305
   2.23438    -25.326673
   2.28675    -25.327345
   2.33912    -25.328053
   2.39149    -25.328941
   2.44386    -25.329864
   2.49623    -25.330747
   2.54860    -25.331625
   2.60097    -25.332447
   2.65334    -25.333140
   2.70571    -25.333769
   2.75808    -25.334298
   2.81045    -25.334637
   2.86282    -25.334967
   2.91519    -25.335215
   2.96756    -25.335366
   3.01993    -25.335543
   3.07230    -25.335598
   3.12467    -25.335667
   3.12467    -25.335667
   3.16743    -25.335300
   3.21019    -25.334189
   3.25295    -25.332585
   3.29571    -25.330580
   3.33846    -25.328356
   3.38122    -25.326018
   3.42398    -25.323656
   3.46674    -25.321324
   3.50950    -25.318978
   3.55226    -25.316772
   3.59502    -25.314731
   3.63778    -25.312867
   3.68054    -25.311187
   3.72330    -25.309756
   3.76606    -25.308558
   3.80882    -25.307618
   3.85158    -25.306982
   3.89434    -25.306667
   3.93710    -25.306638
 
# Band-Index    4
   3.93710    -25.234991
   3.89434    -25.233346
   3.85158    -25.231747
   3.80882    -25.230257
   3.76606    -25.228862
   3.72330    -25.227624
   3.68054    -25.226576
   3.63778    -25.225773
   3.59502    -25.225146
   3.55226    -25.224827
   3.50950    -25.224699
   3.46674    -25.224783
   3.42398    -25.225017
   3.38122    -25.225327
   3.33846    -25.225744
   3.29571    -25.226140
   3.25295    -25.226518
   3.21019    -25.226757
   3.16743    -25.226955
   3.12467    -25.227017
   3.12467    -25.227017
   3.07230    -25.227085
   3.01993    -25.227304
   2.96756    -25.227687
   2.91519    -25.228258
   2.86282    -25.228949
   2.81045    -25.229809
   2.75808    -25.230880
   2.70571    -25.232081
   2.65334    -25.233460
   2.60097    -25.234972
   2.54860    -25.236561
   2.49623    -25.238216
   2.44386    -25.239832
   2.39149    -25.241400
   2.33912    -25.242775
   2.28675    -25.243999
   2.23438    -25.244867
   2.18201    -25.245448
   2.12964    -25.245646
   2.12964    -25.245646
   2.06917    -25.245514
   2.00870    -25.245132
   1.94823    -25.244421
   1.88776    -25.243465
   1.82729    -25.242227
   1.76682    -25.240796
   1.70635    -25.238981
   1.64588    -25.236937
   1.58540    -25.234632
   1.52493    -25.232206
   1.46446    -25.231049
   1.40399    -25.230502
   1.34352    -25.230319
   1.28305    -25.230479
   1.22258    -25.230864
   1.16211    -25.231302
   1.10163    -25.231721
   1.04116    -25.232027
   0.98069    -25.232171
   0.98069    -25.232171
   0.95046    -25.232197
   0.92022    -25.232264
   0.88999    -25.232400
   0.85975    -25.232569
   0.82951    -25.232700
   0.79928    -25.232911
   0.76904    -25.233134
   0.73881    -25.233335
   0.70857    -25.233578
   0.67834    -25.233828
   0.64810    -25.234041
   0.61787    -25.234260
   0.58763    -25.234445
   0.55739    -25.234598
   0.52716    -25.234734
   0.49692    -25.234816
   0.46669    -25.234895
   0.43645    -25.234943
   0.40622    -25.234991
   0.40622    -25.234991
   0.38484    -25.234561
   0.36346    -25.234100
   0.34208    -25.233656
   0.32070    -25.233196
   0.29932    -25.232721
   0.27794    -25.232232
   0.25656    -25.231745
   0.23518    -25.231219
   0.21380    -25.230697
   0.19242    -25.230151
   0.17104    -25.229622
   0.14966    -25.229065
   0.12828    -25.228500
   0.10690    -25.227896
   0.08552    -25.227354
   0.06414    -25.226894
   0.04276    -25.226476
   0.02138    -25.226210
   0.00000    -25.226111
 
# Band-Index    5
   0.00000    -25.219410
   0.02138    -25.219282
   0.04276    -25.218902
   0.06414    -25.218400
   0.08552    -25.217709
   0.10690    -25.216947
   0.12828    -25.216160
   0.14966    -25.215287
   0.17104    -25.214398
   0.19242    -25.213457
   0.21380    -25.212562
   0.23518    -25.211680
   0.25656    -25.210843
   0.27794    -25.210014
   0.29932    -25.209251
   0.32070    -25.208545
   0.34208    -25.207904
   0.36346    -25.207335
   0.38484    -25.206878
   0.40622    -25.206486
   0.40622    -25.206486
   0.43645    -25.206526
   0.46669    -25.206714
   0.49692    -25.207024
   0.52716    -25.207465
   0.55739    -25.207994
   0.58763    -25.208624
   0.61787    -25.209322
   0.64810    -25.210072
   0.67834    -25.210881
   0.70857    -25.211703
   0.73881    -25.212514
   0.76904    -25.213375
   0.79928    -25.214153
   0.82951    -25.214866
   0.85975    -25.215508
   0.88999    -25.215997
   0.92022    -25.216376
   0.95046    -25.216635
   0.98069    -25.216715
   0.98069    -25.216715
   1.04116    -25.216918
   1.10163    -25.217652
   1.16211    -25.218866
   1.22258    -25.220491
   1.28305    -25.222462
   1.34352    -25.224628
   1.40399    -25.227130
   1.46446    -25.229690
   1.52493    -25.231918
   1.58540    -25.233161
   1.64588    -25.234742
   1.70635    -25.236479
   1.76682    -25.238490
   1.82729    -25.240337
   1.88776    -25.242074
   1.94823    -25.243590
   2.00870    -25.244771
   2.06917    -25.245399
   2.12964    -25.245646
   2.12964    -25.245646
   2.18201    -25.245448
   2.23438    -25.244867
   2.28675    -25.243999
   2.33912    -25.242775
   2.39149    -25.241400
   2.44386    -25.239832
   2.49623    -25.238216
   2.54860    -25.236561
   2.60097    -25.234972
   2.65334    -25.233460
   2.70571    -25.232081
   2.75808    -25.230880
   2.81045    -25.229809
   2.86282    -25.228949
   2.91519    -25.228258
   2.96756    -25.227687
   3.01993    -25.227304
   3.07230    -25.227085
   3.12467    -25.227017
   3.12467    -25.227017
   3.16743    -25.226937
   3.21019    -25.226684
   3.25295    -25.226335
   3.29571    -25.225808
   3.33846    -25.225161
   3.38122    -25.224377
   3.42398    -25.223488
   3.46674    -25.222466
   3.50950    -25.221328
   3.55226    -25.220100
   3.59502    -25.218743
   3.63778    -25.217384
   3.68054    -25.215898
   3.72330    -25.214365
   3.76606    -25.212786
   3.80882    -25.211180
   3.85158    -25.209531
   3.89434    -25.207959
   3.93710    -25.206486
 
# Band-Index    6
   3.93710    -24.766484
   3.89434    -24.767489
   3.85158    -24.768259
   3.80882    -24.768837
   3.76606    -24.769188
   3.72330    -24.769320
   3.68054    -24.769207
   3.63778    -24.768895
   3.59502    -24.768362
   3.55226    -24.767702
   3.50950    -24.766909
   3.46674    -24.766055
   3.42398    -24.765131
   3.38122    -24.764217
   3.33846    -24.763357
   3.29571    -24.762600
   3.25295    -24.762004
   3.21019    -24.761563
   3.16743    -24.761287
   3.12467    -24.761190
   3.12467    -24.761190
   3.07230    -24.761004
   3.01993    -24.760773
   2.96756    -24.760297
   2.91519    -24.759664
   2.86282    -24.758876
   2.81045    -24.757943
   2.75808    -24.756822
   2.70571    -24.755695
   2.65334    -24.754485
   2.60097    -24.753290
   2.54860    -24.752163
   2.49623    -24.751090
   2.44386    -24.750040
   2.39149    -24.749093
   2.33912    -24.748263
   2.28675    -24.747604
   2.23438    -24.747090
   2.18201    -24.746824
   2.12964    -24.746722
   2.12964    -24.746722
   2.06917    -24.746655
   2.00870    -24.746501
   1.94823    -24.746271
   1.88776    -24.746159
   1.82729    -24.746314
   1.76682    -24.746860
   1.70635    -24.747775
   1.64588    -24.749109
   1.58540    -24.750611
   1.52493    -24.752150
   1.46446    -24.753524
   1.40399    -24.754538
   1.34352    -24.755166
   1.28305    -24.755466
   1.22258    -24.755393
   1.16211    -24.755090
   1.10163    -24.754710
   1.04116    -24.754378
   0.98069    -24.754272
   0.98069    -24.754272
   0.95046    -24.754365
   0.92022    -24.754660
   0.88999    -24.755125
   0.85975    -24.755745
   0.82951    -24.756460
   0.79928    -24.757303
   0.76904    -24.758227
   0.73881    -24.759195
   0.70857    -24.760210
   0.67834    -24.761208
   0.64810    -24.762173
   0.61787    -24.763094
   0.58763    -24.763930
   0.55739    -24.764662
   0.52716    -24.765293
   0.49692    -24.765798
   0.46669    -24.766166
   0.43645    -24.766389
   0.40622    -24.766484
   0.40622    -24.766484
   0.38484    -24.766747
   0.36346    -24.766977
   0.34208    -24.767202
   0.32070    -24.767405
   0.29932    -24.767587
   0.27794    -24.767749
   0.25656    -24.767903
   0.23518    -24.768025
   0.21380    -24.768128
   0.19242    -24.768222
   0.17104    -24.768341
   0.14966    -24.768412
   0.12828    -24.768469
   0.10690    -24.768495
   0.08552    -24.768522
   0.06414    -24.768568
   0.04276    -24.768581
   0.02138    -24.768610
   0.00000    -24.768614
 
# Band-Index    7
   0.00000    -24.699531
   0.02138    -24.699582
   0.04276    -24.699713
   0.06414    -24.700001
   0.08552    -24.700312
   0.10690    -24.700713
   0.12828    -24.701192
   0.14966    -24.701677
   0.17104    -24.702199
   0.19242    -24.702679
   0.21380    -24.703213
   0.23518    -24.703720
   0.25656    -24.704240
   0.27794    -24.704709
   0.29932    -24.705159
   0.32070    -24.705568
   0.34208    -24.705930
   0.36346    -24.706240
   0.38484    -24.706535
   0.40622    -24.706744
   0.40622    -24.706744
   0.43645    -24.706675
   0.46669    -24.706543
   0.49692    -24.706326
   0.52716    -24.706052
   0.55739    -24.705680
   0.58763    -24.705247
   0.61787    -24.704743
   0.64810    -24.704165
   0.67834    -24.703567
   0.70857    -24.702915
   0.73881    -24.702220
   0.76904    -24.701561
   0.79928    -24.700831
   0.82951    -24.700077
   0.85975    -24.699341
   0.88999    -24.698536
   0.92022    -24.697761
   0.95046    -24.697117
   0.98069    -24.696814
   0.98069    -24.696814
   1.04116    -24.696587
   1.10163    -24.696020
   1.16211    -24.695159
   1.22258    -24.694032
   1.28305    -24.692754
   1.34352    -24.693060
   1.40399    -24.693893
   1.46446    -24.695025
   1.52493    -24.696251
   1.58540    -24.697408
   1.64588    -24.698286
   1.70635    -24.698573
   1.76682    -24.698313
   1.82729    -24.697318
   1.88776    -24.695871
   1.94823    -24.694251
   2.00870    -24.692779
   2.06917    -24.691686
   2.12964    -24.691312
   2.12964    -24.691312
   2.18201    -24.691260
   2.23438    -24.691099
   2.28675    -24.690911
   2.33912    -24.690510
   2.39149    -24.690020
   2.44386    -24.689382
   2.49623    -24.688617
   2.54860    -24.687697
   2.60097    -24.686657
   2.65334    -24.685453
   2.70571    -24.684198
   2.75808    -24.682903
   2.81045    -24.681532
   2.86282    -24.680248
   2.91519    -24.679085
   2.96756    -24.678022
   3.01993    -24.677214
   3.07230    -24.676692
   3.12467    -24.676543
   3.12467    -24.676543
   3.16743    -24.676844
   3.21019    -24.677698
   3.25295    -24.679059
   3.29571    -24.680761
   3.33846    -24.682772
   3.38122    -24.684909
   3.42398    -24.687134
   3.46674    -24.689410
   3.50950    -24.691618
   3.55226    -24.693777
   3.59502    -24.695824
   3.63778    -24.697781
   3.68054    -24.699563
   3.72330    -24.701207
   3.76606    -24.702663
   3.80882    -24.703933
   3.85158    -24.705022
   3.89434    -24.705973
   3.93710    -24.706744
 
# Band-Index    8
   3.93710    -24.680215
   3.89434    -24.680986
   3.85158    -24.681697
   3.80882    -24.682372
   3.76606    -24.682939
   3.72330    -24.683416
   3.68054    -24.683731
   3.63778    -24.683926
   3.59502    -24.683935
   3.55226    -24.683773
   3.50950    -24.683425
   3.46674    -24.682895
   3.42398    -24.682126
   3.38122    -24.681236
   3.33846    -24.680230
   3.29571    -24.679169
   3.25295    -24.678177
   3.21019    -24.677302
   3.16743    -24.676745
   3.12467    -24.676543
   3.12467    -24.676543
   3.07230    -24.676692
   3.01993    -24.677214
   2.96756    -24.678022
   2.91519    -24.679085
   2.86282    -24.680248
   2.81045    -24.681532
   2.75808    -24.682903
   2.70571    -24.684198
   2.65334    -24.685453
   2.60097    -24.686657
   2.54860    -24.687697
   2.49623    -24.688617
   2.44386    -24.689382
   2.39149    -24.690020
   2.33912    -24.690510
   2.28675    -24.690911
   2.23438    -24.691099
   2.18201    -24.691260
   2.12964    -24.691312
   2.12964    -24.691312
   2.06917    -24.691154
   2.00870    -24.690719
   1.94823    -24.689994
   1.88776    -24.689140
   1.82729    -24.688258
   1.76682    -24.687554
   1.70635    -24.686995
   1.64588    -24.686837
   1.58540    -24.687056
   1.52493    -24.687705
   1.46446    -24.688705
   1.40399    -24.689917
   1.34352    -24.691246
   1.28305    -24.692718
   1.22258    -24.692817
   1.16211    -24.693124
   1.10163    -24.693547
   1.04116    -24.693899
   0.98069    -24.694067
   0.98069    -24.694067
   0.95046    -24.693722
   0.92022    -24.692918
   0.88999    -24.691987
   0.85975    -24.690967
   0.82951    -24.689852
   0.79928    -24.688770
   0.76904    -24.687696
   0.73881    -24.686617
   0.70857    -24.685622
   0.67834    -24.684671
   0.64810    -24.683785
   0.61787    -24.682998
   0.58763    -24.682285
   0.55739    -24.681660
   0.52716    -24.681144
   0.49692    -24.680720
   0.46669    -24.680428
   0.43645    -24.680250
   0.40622    -24.680215
   0.40622    -24.680215
   0.38484    -24.680413
   0.36346    -24.680609
   0.34208    -24.680852
   0.32070    -24.681111
   0.29932    -24.681386
   0.27794    -24.681675
   0.25656    -24.681988
   0.23518    -24.682295
   0.21380    -24.682620
   0.19242    -24.682946
   0.17104    -24.683309
   0.14966    -24.683622
   0.12828    -24.683928
   0.10690    -24.684185
   0.08552    -24.684430
   0.06414    -24.684666
   0.04276    -24.684814
   0.02138    -24.684924
   0.00000    -24.684957
 
# Band-Index    9
   0.00000    -24.636325
   0.02138    -24.636455
   0.04276    -24.636821
   0.06414    -24.637431
   0.08552    -24.638199
   0.10690    -24.639145
   0.12828    -24.640201
   0.14966    -24.641304
   0.17104    -24.642454
   0.19242    -24.643591
   0.21380    -24.644767
   0.23518    -24.645930
   0.25656    -24.647079
   0.27794    -24.648187
   0.29932    -24.649266
   0.32070    -24.650302
   0.34208    -24.651293
   0.36346    -24.652233
   0.38484    -24.653150
   0.40622    -24.653991
   0.40622    -24.653991
   0.43645    -24.653908
   0.46669    -24.653723
   0.49692    -24.653415
   0.52716    -24.652991
   0.55739    -24.652438
   0.58763    -24.651779
   0.61787    -24.650991
   0.64810    -24.650070
   0.67834    -24.649082
   0.70857    -24.648022
   0.73881    -24.646862
   0.76904    -24.645702
   0.79928    -24.644521
   0.82951    -24.643372
   0.85975    -24.642359
   0.88999    -24.641424
   0.92022    -24.640666
   0.95046    -24.640221
   0.98069    -24.640061
   0.98069    -24.640061
   1.04116    -24.639995
   1.10163    -24.639869
   1.16211    -24.639590
   1.22258    -24.639102
   1.28305    -24.638318
   1.34352    -24.637278
   1.40399    -24.636134
   1.46446    -24.634889
   1.52493    -24.633650
   1.58540    -24.632568
   1.64588    -24.631763
   1.70635    -24.632473
   1.76682    -24.633203
   1.82729    -24.633468
   1.88776    -24.633561
   1.94823    -24.633506
   2.00870    -24.633413
   2.06917    -24.633306
   2.12964    -24.633269
   2.12964    -24.633269
   2.18201    -24.633287
   2.23438    -24.633339
   2.28675    -24.633491
   2.33912    -24.633630
   2.39149    -24.633879
   2.44386    -24.634142
   2.49623    -24.634505
   2.54860    -24.634927
   2.60097    -24.635430
   2.65334    -24.635998
   2.70571    -24.636662
   2.75808    -24.637404
   2.81045    -24.638152
   2.86282    -24.638950
   2.91519    -24.639753
   2.96756    -24.640394
   3.01993    -24.640964
   3.07230    -24.641316
   3.12467    -24.641443
   3.12467    -24.641443
   3.16743    -24.641236
   3.21019    -24.640626
   3.25295    -24.639775
   3.29571    -24.638757
   3.33846    -24.637754
   3.38122    -24.636813
   3.42398    -24.636074
   3.46674    -24.635609
   3.50950    -24.635436
   3.55226    -24.635656
   3.59502    -24.636258
   3.63778    -24.637311
   3.68054    -24.638704
   3.72330    -24.640487
   3.76606    -24.642637
   3.80882    -24.645107
   3.85158    -24.647825
   3.89434    -24.650820
   3.93710    -24.653991
 
# Band-Index   10
   3.93710    -24.596549
   3.89434    -24.598562
   3.85158    -24.600824
   3.80882    -24.603333
   3.76606    -24.605936
   3.72330    -24.608679
   3.68054    -24.611534
   3.63778    -24.614438
   3.59502    -24.617378
   3.55226    -24.620392
   3.50950    -24.623370
   3.46674    -24.626312
   3.42398    -24.629165
   3.38122    -24.631890
   3.33846    -24.634423
   3.29571    -24.636702
   3.25295    -24.638659
   3.21019    -24.640138
   3.16743    -24.641113
   3.12467    -24.641443
   3.12467    -24.641443
   3.07230    -24.641316
   3.01993    -24.640964
   2.96756    -24.640394
   2.91519    -24.639753
   2.86282    -24.638950
   2.81045    -24.638152
   2.75808    -24.637404
   2.70571    -24.636662
   2.65334    -24.635998
   2.60097    -24.635430
   2.54860    -24.634927
   2.49623    -24.634505
   2.44386    -24.634142
   2.39149    -24.633879
   2.33912    -24.633630
   2.28675    -24.633491
   2.23438    -24.633339
   2.18201    -24.633287
   2.12964    -24.633269
   2.12964    -24.633269
   2.06917    -24.633119
   2.00870    -24.632808
   1.94823    -24.632241
   1.88776    -24.631683
   1.82729    -24.631278
   1.76682    -24.631153
   1.70635    -24.631224
   1.64588    -24.631374
   1.58540    -24.629800
   1.52493    -24.627867
   1.46446    -24.625654
   1.40399    -24.623213
   1.34352    -24.620719
   1.28305    -24.618528
   1.22258    -24.616456
   1.16211    -24.614726
   1.10163    -24.613423
   1.04116    -24.612619
   0.98069    -24.612381
   0.98069    -24.612381
   0.95046    -24.612211
   0.92022    -24.611670
   0.88999    -24.610933
   0.85975    -24.609948
   0.82951    -24.608762
   0.79928    -24.607513
   0.76904    -24.606214
   0.73881    -24.604896
   0.70857    -24.603636
   0.67834    -24.602393
   0.64810    -24.601242
   0.61787    -24.600220
   0.58763    -24.599279
   0.55739    -24.598457
   0.52716    -24.597776
   0.49692    -24.597235
   0.46669    -24.596847
   0.43645    -24.596612
   0.40622    -24.596549
   0.40622    -24.596549
   0.38484    -24.597065
   0.36346    -24.597650
   0.34208    -24.598364
   0.32070    -24.599163
   0.29932    -24.600042
   0.27794    -24.600993
   0.25656    -24.602017
   0.23518    -24.603077
   0.21380    -24.604200
   0.19242    -24.605337
   0.17104    -24.606536
   0.14966    -24.607654
   0.12828    -24.608754
   0.10690    -24.609746
   0.08552    -24.610669
   0.06414    -24.611476
   0.04276    -24.612053
   0.02138    -24.612471
   0.00000    -24.612602
 
# Band-Index   11
   0.00000    -10.030851
   0.02138    -10.029198
   0.04276    -10.024241
   0.06414    -10.015990
   0.08552    -10.004450
   0.10690     -9.989640
   0.12828     -9.971584
   0.14966     -9.950312
   0.17104     -9.925875
   0.19242     -9.898342
   0.21380     -9.867821
   0.23518     -9.834472
   0.25656     -9.798554
   0.27794     -9.760512
   0.29932     -9.721162
   0.32070     -9.682119
   0.34208     -9.646787
   0.36346     -9.622205
   0.38484     -9.618918
   0.40622     -9.641817
   0.40622     -9.641817
   0.43645     -9.642545
   0.46669     -9.644715
   0.49692     -9.648254
   0.52716     -9.653050
   0.55739     -9.658955
   0.58763     -9.665790
   0.61787     -9.673353
   0.64810     -9.681422
   0.67834     -9.689769
   0.70857     -9.698161
   0.73881     -9.706372
   0.76904     -9.714189
   0.79928     -9.721404
   0.82951     -9.727836
   0.85975     -9.733323
   0.88999     -9.737733
   0.92022     -9.740957
   0.95046     -9.742922
   0.98069     -9.743580
   0.98069     -9.743580
   1.04116    -10.039867
   1.10163    -10.423722
   1.16211    -10.796459
   1.22258    -11.152017
   1.28305    -11.488445
   1.34352    -11.804667
   1.40399    -12.099882
   1.46446    -12.373402
   1.52493    -12.624707
   1.58540    -12.853301
   1.64588    -13.058776
   1.70635    -13.240823
   1.76682    -13.399117
   1.82729    -13.533435
   1.88776    -13.643599
   1.94823    -13.729416
   2.00870    -13.790814
   2.06917    -13.827681
   2.12964    -13.839961
   2.12964    -13.839961
   2.18201    -13.830578
   2.23438    -13.802409
   2.28675    -13.755524
   2.33912    -13.690076
   2.39149    -13.606215
   2.44386    -13.504185
   2.49623    -13.384387
   2.54860    -13.247288
   2.60097    -13.093560
   2.65334    -12.924208
   2.70571    -12.740593
   2.75808    -12.544691
   2.81045    -12.339490
   2.86282    -12.129488
   2.91519    -11.921622
   2.96756    -11.726741
   3.01993    -11.561146
   3.07230    -11.446655
   3.12467    -11.405213
   3.12467    -11.405213
   3.16743    -11.398999
   3.21019    -11.380370
   3.25295    -11.349362
   3.29571    -11.306031
   3.33846    -11.250465
   3.38122    -11.182781
   3.42398    -11.103137
   3.46674    -11.011726
   3.50950    -10.908796
   3.55226    -10.794672
   3.59502    -10.669756
   3.63778    -10.534566
   3.68054    -10.389754
   3.72330    -10.236209
   3.76606    -10.075120
   3.80882     -9.908383
   3.85158     -9.740286
   3.89434     -9.595999
   3.93710     -9.641817
 
# Band-Index   12
   3.93710     -9.337020
   3.89434     -9.395545
   3.85158     -9.268793
   3.80882     -9.124508
   3.76606     -8.989850
   3.72330     -8.871144
   3.68054     -8.771755
   3.63778     -8.693263
   3.59502     -8.635453
   3.55226     -8.596591
   3.50950     -8.573850
   3.46674     -8.563865
   3.42398     -8.563211
   3.38122     -8.568714
   3.33846     -8.577648
   3.29571     -8.587776
   3.25295     -8.597353
   3.21019     -8.605081
   3.16743     -8.610065
   3.12467     -8.611783
   3.12467     -8.611783
   3.07230     -8.551586
   3.01993     -8.380837
   2.96756     -8.121600
   2.91519     -7.795963
   2.86282     -7.420509
   2.81045     -7.006502
   2.75808     -6.561484
   2.70571     -6.090614
   2.65334     -5.597726
   2.60097     -5.085955
   2.54860     -4.558033
   2.49623     -4.016730
   2.44386     -3.465179
   2.39149     -2.907217
   2.33912     -2.348336
   2.28675     -1.797692
   2.23438     -1.274091
   2.18201     -0.829088
   2.12964     -0.622657
   2.12964     -0.622657
   2.06917     -0.761420
   2.00870     -1.145633
   1.94823     -1.634311
   1.88776     -2.153336
   1.82729     -2.681924
   1.76682     -3.212932
   1.70635     -3.743202
   1.64588     -4.270980
   1.58540     -4.795068
   1.52493     -5.314461
   1.46446     -5.828158
   1.40399     -6.335141
   1.34352     -6.834252
   1.28305     -7.324257
   1.22258     -7.803799
   1.16211     -8.271236
   1.10163     -8.724254
   1.04116     -9.156412
   0.98069     -9.468804
   0.98069     -9.468804
   0.95046     -9.467966
   0.92022     -9.465461
   0.88999     -9.461349
   0.85975     -9.455721
   0.82951     -9.448705
   0.79928     -9.440468
   0.76904     -9.431207
   0.73881     -9.421149
   0.70857     -9.410554
   0.67834     -9.399695
   0.64810     -9.388862
   0.61787     -9.378359
   0.58763     -9.368490
   0.55739     -9.359545
   0.52716     -9.351799
   0.49692     -9.345497
   0.46669     -9.340840
   0.43645     -9.337981
   0.40622     -9.337020
   0.40622     -9.337020
   0.38484     -9.363042
   0.36346     -9.363864
   0.34208     -9.344373
   0.32070     -9.315064
   0.29932     -9.282883
   0.27794     -9.251107
   0.25656     -9.221189
   0.23518     -9.193759
   0.21380     -9.169068
   0.19242     -9.147169
   0.17104     -9.128014
   0.14966     -9.111504
   0.12828     -9.097521
   0.10690     -9.085940
   0.08552     -9.076646
   0.06414     -9.069534
   0.04276     -9.064516
   0.02138     -9.061533
   0.00000     -9.060543
 
# Band-Index   13
   0.00000     -5.044501
   0.02138     -5.043202
   0.04276     -5.039309
   0.06414     -5.032829
   0.08552     -5.023771
   0.10690     -5.012157
   0.12828     -4.998007
   0.14966     -4.981348
   0.17104     -4.962216
   0.19242     -4.940653
   0.21380     -4.916714
   0.23518     -4.890465
   0.25656     -4.861993
   0.27794     -4.831411
   0.29932     -4.798877
   0.32070     -4.764624
   0.34208     -4.729022
   0.36346     -4.692721
   0.38484     -4.656978
   0.40622     -4.624434
   0.40622     -4.624434
   0.43645     -4.619296
   0.46669     -4.603965
   0.49692     -4.578673
   0.52716     -4.543810
   0.55739     -4.499925
   0.58763     -4.447732
   0.61787     -4.388107
   0.64810     -4.322099
   0.67834     -4.250957
   0.70857     -4.176130
   0.73881     -4.099300
   0.76904     -4.022406
   0.79928     -3.947633
   0.82951     -3.877411
   0.85975     -3.814389
   0.88999     -3.761316
   0.92022     -3.720894
   0.95046     -3.695502
   0.98069     -3.686826
   0.98069     -3.686826
   1.04116     -3.674072
   1.10163     -3.635870
   1.16211     -3.572362
   1.22258     -3.483803
   1.28305     -3.370561
   1.34352     -3.233130
   1.40399     -3.072171
   1.46446     -2.888507
   1.52493     -2.683200
   1.58540     -2.457640
   1.64588     -2.213665
   1.70635     -1.953770
   1.76682     -1.681470
   1.82729     -1.401813
   1.88776     -1.122245
   1.94823     -0.853350
   2.00870     -0.606252
   2.06917     -0.373792
   2.12964     -0.216631
   2.12964     -0.216631
   2.18201     -0.237995
   2.23438     -0.298964
   2.28675     -0.391653
   2.33912     -0.506465
   2.39149     -0.634513
   2.44386     -0.768608
   2.49623     -0.903336
   2.54860     -1.034740
   2.60097     -1.159949
   2.65334     -1.276898
   2.70571     -1.384076
   2.75808     -1.480388
   2.81045     -1.565031
   2.86282     -1.637420
   2.91519     -1.697123
   2.96756     -1.743834
   3.01993     -1.777342
   3.07230     -1.797502
   3.12467     -1.804231
   3.12467     -1.804231
   3.16743     -1.878195
   3.21019     -2.074059
   3.25295     -2.342970
   3.29571     -2.646879
   3.33846     -2.962438
   3.38122     -3.275365
   3.42398     -3.576074
   3.46674     -3.857295
   3.50950     -4.112958
   3.55226     -4.337659
   3.59502     -4.526696
   3.63778     -4.676331
   3.68054     -4.784196
   3.72330     -4.849671
   3.76606     -4.873904
   3.80882     -4.859573
   3.85158     -4.810393
   3.89434     -4.730570
   3.93710     -4.624434
 
# Band-Index   14
   3.93710     -4.400485
   3.89434     -4.265507
   3.85158     -4.113544
   3.80882     -3.947996
   3.76606     -3.771979
   3.72330     -3.588463
   3.68054     -3.400361
   3.63778     -3.210605
   3.59502     -3.022143
   3.55226     -2.837996
   3.50950     -2.661203
   3.46674     -2.494755
   3.42398     -2.341515
   3.38122     -2.204061
   3.33846     -2.084615
   3.29571     -1.984950
   3.25295     -1.906380
   3.21019     -1.849771
   3.16743     -1.815634
   3.12467     -1.804231
   3.12467     -1.804231
   3.07230     -1.797502
   3.01993     -1.777342
   2.96756     -1.743834
   2.91519     -1.697123
   2.86282     -1.637420
   2.81045     -1.565031
   2.75808     -1.480388
   2.70571     -1.384076
   2.65334     -1.276898
   2.60097     -1.159949
   2.54860     -1.034740
   2.49623     -0.903336
   2.44386     -0.768608
   2.39149     -0.634513
   2.33912     -0.506465
   2.28675     -0.391653
   2.23438     -0.298964
   2.18201     -0.237995
   2.12964     -0.216631
   2.12964     -0.216631
   2.06917     -0.280448
   2.00870     -0.452381
   1.94823     -0.693004
   1.88776     -0.968540
   1.82729     -1.257074
   1.76682     -1.545396
   1.70635     -1.825455
   1.64588     -2.092138
   1.58540     -2.342004
   1.52493     -2.572652
   1.46446     -2.782331
   1.40399     -2.969726
   1.34352     -3.133826
   1.28305     -3.273851
   1.22258     -3.389178
   1.16211     -3.479336
   1.10163     -3.543974
   1.04116     -3.582851
   0.98069     -3.595827
   0.98069     -3.595827
   0.95046     -3.602503
   0.92022     -3.622257
   0.88999     -3.654283
   0.85975     -3.697205
   0.82951     -3.749177
   0.79928     -3.808077
   0.76904     -3.871682
   0.73881     -3.937836
   0.70857     -4.004531
   0.67834     -4.069942
   0.64810     -4.132463
   0.61787     -4.190708
   0.58763     -4.243479
   0.55739     -4.289771
   0.52716     -4.328756
   0.49692     -4.359758
   0.46669     -4.382263
   0.43645     -4.395910
   0.40622     -4.400485
   0.40622     -4.400485
   0.38484     -4.361281
   0.36346     -4.309397
   0.34208     -4.247775
   0.32070     -4.178099
   0.29932     -4.101575
   0.27794     -4.019278
   0.25656     -3.932299
   0.23518     -3.841812
   0.21380     -3.749137
   0.19242     -3.655765
   0.17104     -3.563368
   0.14966     -3.473829
   0.12828     -3.389237
   0.10690     -3.311852
   0.08552     -3.244059
   0.06414     -3.188208
   0.04276     -3.146478
   0.02138     -3.120656
   0.00000     -3.111910
 
# Band-Index   15
   0.00000      1.316856
   0.02138      1.331410
   0.04276      1.374675
   0.06414      1.445502
   0.08552      1.542177
   0.10690      1.662605
   0.12828      1.804529
   0.14966      1.965709
   0.17104      2.144021
   0.19242      2.337519
   0.21380      2.544465
   0.23518      2.763318
   0.25656      2.992700
   0.27794      3.231356
   0.29932      3.478017
   0.32070      3.731272
   0.34208      3.988877
   0.36346      4.244611
   0.38484      4.455779
   0.40622      4.497070
   0.40622      4.497070
   0.43645      4.244668
   0.46669      3.928435
   0.49692      3.615313
   0.52716      3.309379
   0.55739      3.012124
   0.58763      2.724599
   0.61787      2.447814
   0.64810      2.182852
   0.67834      1.930907
   0.70857      1.693345
   0.73881      1.471747
   0.76904      1.267919
   0.79928      1.083919
   0.82951      0.922042
   0.85975      0.784746
   0.88999      0.674541
   0.92022      0.593787
   0.95046      0.544452
   0.98069      0.527854
   0.98069      0.527854
   1.04116      0.508743
   1.10163      0.475510
   1.16211      0.454978
   1.22258      0.457205
   1.28305      0.485320
   1.34352      0.540100
   1.40399      0.621331
   1.46446      0.728258
   1.52493      0.859661
   1.58540      1.013817
   1.64588      1.188336
   1.70635      1.379868
   1.76682      1.583540
   1.82729      1.791764
   1.88776      1.985081
   1.94823      1.816224
   2.00870      1.348771
   2.06917      0.906782
   2.12964      0.673275
   2.12964      0.673275
   2.18201      0.836537
   2.23438      1.132178
   2.28675      1.353443
   2.33912      1.436846
   2.39149      1.416854
   2.44386      1.342332
   2.49623      1.242847
   2.54860      1.134021
   2.60097      1.024413
   2.65334      0.919017
   2.70571      0.820866
   2.75808      0.731891
   2.81045      0.653334
   2.86282      0.586000
   2.91519      0.530413
   2.96756      0.486914
   3.01993      0.455713
   3.07230      0.436950
   3.12467      0.430687
   3.12467      0.430687
   3.16743      0.503783
   3.21019      0.696155
   3.25295      0.956561
   3.29571      1.243866
   3.33846      1.532358
   3.38122      1.807833
   3.42398      2.064425
   3.46674      2.302159
   3.50950      2.524491
   3.55226      2.736194
   3.59502      2.941988
   3.63778      3.145905
   3.68054      3.351121
   3.72330      3.559969
   3.76606      3.774043
   3.80882      3.994123
   3.85158      4.219337
   3.89434      4.439532
   3.93710      4.497070
 
# Band-Index   16
   3.93710      4.613190
   3.89434      4.701930
   3.85158      4.529038
   3.80882      4.347842
   3.76606      4.181506
   3.72330      4.033380
   3.68054      3.905100
   3.63778      3.797920
   3.59502      3.712883
   3.55226      3.650771
   3.50950      3.612009
   3.46674      3.596433
   3.42398      3.603020
   3.38122      3.629522
   3.33846      3.672103
   3.29571      3.725071
   3.25295      3.780850
   3.21019      3.830477
   3.16743      3.864932
   3.12467      3.877294
   3.12467      3.877294
   3.07230      3.880507
   3.01993      3.889563
   2.96756      3.902708
   2.91519      3.916918
   2.86282      3.927830
   2.81045      3.929725
   2.75808      3.915786
   2.70571      3.878856
   2.65334      3.812812
   2.60097      3.714287
   2.54860      3.584051
   2.49623      3.427287
   2.44386      3.252711
   2.39149      3.071263
   2.33912      2.895106
   2.28675      2.737127
   2.23438      2.610607
   2.18201      2.528163
   2.12964      2.499449
   2.12964      2.499449
   2.06917      2.469966
   2.00870      2.366258
   1.94823      2.218117
   1.88776      2.319714
   1.82729      2.716758
   1.76682      3.031750
   1.70635      3.204674
   1.64588      3.206731
   1.58540      3.060554
   1.52493      2.820235
   1.46446      2.535232
   1.40399      2.238340
   1.34352      1.949061
   1.28305      1.678847
   1.22258      1.434805
   1.16211      1.222111
   1.10163      1.046569
   1.04116      0.919792
   0.98069      0.869401
   0.98069      0.869401
   0.95046      0.885163
   0.92022      0.932063
   0.88999      1.008987
   0.85975      1.114257
   0.82951      1.245830
   0.79928      1.401490
   0.76904      1.579030
   0.73881      1.776345
   0.70857      1.991511
   0.67834      2.222808
   0.64810      2.468699
   0.61787      2.727822
   0.58763      2.998960
   0.55739      3.280950
   0.52716      3.572623
   0.49692      3.872547
   0.46669      4.178031
   0.43645      4.478189
   0.40622      4.613190
   0.40622      4.613190
   0.38484      4.566951
   0.36346      4.497435
   0.34208      4.455555
   0.32070      4.417533
   0.29932      4.381753
   0.27794      4.348123
   0.25656      4.316711
   0.23518      4.287599
   0.21380      4.260848
   0.19242      4.236518
   0.17104      4.214649
   0.14966      4.195279
   0.12828      4.178437
   0.10690      4.164147
   0.08552      4.152430
   0.06414      4.143300
   0.04276      4.136771
   0.02138      4.132849
   0.00000      4.131542
 
# Band-Index   17
   0.00000      7.701827
   0.02138      7.662330
   0.04276      7.556978
   0.06414      7.413029
   0.08552      7.249563
   0.10690      7.076234
   0.12828      6.897834
   0.14966      6.716947
   0.17104      6.535055
   0.19242      6.353088
   0.21380      6.171654
   0.23518      5.991180
   0.25656      5.811985
   0.27794      5.634321
   0.29932      5.458425
   0.32070      5.284615
   0.34208      5.113524
   0.36346      4.947041
   0.38484      4.795772
   0.40622      4.773474
   0.40622      4.773474
   0.43645      4.952618
   0.46669      5.283754
   0.49692      5.628915
   0.52716      5.980574
   0.55739      6.336700
   0.58763      6.695926
   0.61787      7.056899
   0.64810      7.418017
   0.67834      7.777264
   0.70857      8.132018
   0.73881      8.478730
   0.76904      8.812547
   0.79928      9.126925
   0.82951      9.413330
   0.85975      9.661577
   0.88999      9.861511
   0.92022     10.005800
   0.95046     10.091816
   0.98069     10.120238
   0.98069     10.120256
   1.04116     10.005384
   1.10163      9.704359
   1.16211      9.290067
   1.22258      8.817151
   1.28305      8.316947
   1.34352      7.804141
   1.40399      7.287068
   1.46446      6.770962
   1.52493      6.259645
   1.58540      5.756549
   1.64588      5.264935
   1.70635      4.787614
   1.76682      4.326850
   1.82729      3.886388
   1.88776      3.474508
   1.94823      3.106072
   2.00870      2.797693
   2.06917      2.578917
   2.12964      2.499449
   2.12964      2.499449
   2.18201      2.528163
   2.23438      2.610607
   2.28675      2.737128
   2.33912      2.895107
   2.39149      3.071264
   2.44386      3.252712
   2.49623      3.427287
   2.54860      3.584051
   2.60097      3.714288
   2.65334      3.812813
   2.70571      3.878856
   2.75808      3.915787
   2.81045      3.929725
   2.86282      3.927831
   2.91519      3.916918
   2.96756      3.902709
   3.01993      3.889563
   3.07230      3.880507
   3.12467      3.877294
   3.12467      3.877294
   3.16743      3.901214
   3.21019      3.973912
   3.25295      4.097938
   3.29571      4.276622
   3.33846      4.512495
   3.38122      4.805264
   3.42398      5.149808
   3.46674      5.534094
   3.50950      5.933583
   3.55226      6.289734
   3.59502      6.466404
   3.63778      6.376204
   3.68054      6.145736
   3.72330      5.876204
   3.76606      5.600421
   3.80882      5.329328
   3.85158      5.068720
   3.89434      4.831047
   3.93710      4.773474
 
# Band-Index   18
   3.93710      4.987189
   3.89434      4.927395
   3.85158      5.159591
   3.80882      5.428665
   3.76606      5.710708
   3.72330      6.000924
   3.68054      6.294800
   3.63778      6.587129
   3.59502      6.876446
   3.55226      7.164828
   3.50950      7.446555
   3.46674      7.707202
   3.42398      7.924837
   3.38122      8.070816
   3.33846      8.121941
   3.29571      8.083567
   3.25295      7.992570
   3.21019      7.893438
   3.16743      7.820422
   3.12467      7.793854
   3.12467      7.793854
   3.07230      7.799153
   3.01993      7.812623
   2.96756      7.825157
   2.91519      7.812930
   2.86282      7.720376
   2.81045      7.473262
   2.75808      7.079542
   2.70571      6.610619
   2.65334      6.111612
   2.60097      5.601569
   2.54860      5.088915
   2.49623      4.579007
   2.44386      4.078304
   2.39149      3.599164
   2.33912      3.167966
   2.28675      2.832691
   2.23438      2.635853
   2.18201      2.555097
   2.12964      2.535790
   2.12964      2.535790
   2.06917      2.601023
   2.00870      2.804076
   1.94823      3.116088
   1.88776      3.499855
   1.82729      3.926509
   1.76682      4.382195
   1.70635      4.858172
   1.64588      5.348608
   1.58540      5.849460
   1.52493      6.357710
   1.46446      6.870911
   1.40399      7.386713
   1.34352      7.902358
   1.28305      8.413651
   1.22258      8.913360
   1.16211      9.388117
   1.10163      9.808653
   1.04116     10.114474
   0.98069     10.232669
   0.98069     10.232568
   0.95046     10.205210
   0.92022     10.123279
   0.88999      9.987705
   0.85975      9.801179
   0.82951      9.568854
   0.79928      9.298202
   0.76904      8.997764
   0.73881      8.675589
   0.70857      8.338391
   0.67834      7.991434
   0.64810      7.638690
   0.61787      7.283152
   0.58763      6.927146
   0.55739      6.572527
   0.52716      6.220895
   0.49692      5.873896
   0.46669      5.533987
   0.43645      5.208782
   0.40622      4.987189
   0.40622      4.987189
   0.38484      5.060079
   0.36346      5.210178
   0.34208      5.375267
   0.32070      5.547267
   0.29932      5.723701
   0.27794      5.903262
   0.25656      6.084970
   0.23518      6.267915
   0.21380      6.451117
   0.19242      6.633436
   0.17104      6.813459
   0.14966      6.989375
   0.12828      7.158777
   0.10690      7.318440
   0.08552      7.464008
   0.06414      7.589895
   0.04276      7.689426
   0.02138      7.755740
   0.00000      8.596786
