#K-Path(1/A) Energy-Level(eV)
# NKPTS & NBANDS:  94  18
# Band-Index    1
   0.00000    -28.130714
   0.05468    -28.131328
   0.10937    -28.132558
   0.16405    -28.134229
   0.21874    -28.135777
   0.27342    -28.137064
   0.32810    -28.138253
   0.38279    -28.140566
   0.43747    -28.142961
   0.49215    -28.145397
   0.54684    -28.148003
   0.60152    -28.150396
   0.65621    -28.152668
   0.71089    -28.154904
   0.76557    -28.156820
   0.82026    -28.158496
   0.87494    -28.159900
   0.92962    -28.160944
   0.98431    -28.161717
   1.03899    -28.162261
   1.09368    -28.162552
   1.09368    -28.162552
   1.15812    -28.163484
   1.22257    -28.165771
   1.28701    -28.169068
   1.35146    -28.172284
   1.41590    -28.174958
   1.48035    -28.176745
   1.48035    -28.176745
   1.53308    -28.177616
   1.58581    -28.177772
   1.63853    -28.177190
   1.69126    -28.175988
   1.74399    -28.174079
   1.79672    -28.171679
   1.84945    -28.168820
   1.90217    -28.165622
   1.95490    -28.162125
   2.00763    -28.158472
   2.06036    -28.155950
   2.11309    -28.154078
   2.16581    -28.152017
   2.21854    -28.149639
   2.27127    -28.147005
   2.32400    -28.144230
   2.37673    -28.141329
   2.42946    -28.138404
   2.48218    -28.135615
   2.53491    -28.133191
   2.58764    -28.131432
   2.64037    -28.130714
   2.64037    -28.130714
   2.69608    -28.131396
   2.75180    -28.132912
   2.80751    -28.135007
   2.86323    -28.137397
   2.91894    -28.139847
   2.97466    -28.142184
   3.03037    -28.144365
   3.08609    -28.146422
   3.14180    -28.148109
   3.19752    -28.149550
   3.25323    -28.150718
   3.30895    -28.151662
   3.36466    -28.152370
   3.42037    -28.152949
   3.47609    -28.153298
   3.53180    -28.153499
   3.58752    -28.153542
   3.58752    -28.153542
   3.64276    -28.154518
   3.69800    -28.157006
   3.75324    -28.160201
   3.80848    -28.163688
   3.86371    -28.167004
   3.91895    -28.169862
   3.97419    -28.172204
   4.02943    -28.174021
   4.08467    -28.175200
   4.13991    -28.175868
   4.19515    -28.175998
   4.25039    -28.175736
   4.30563    -28.175117
   4.36087    -28.174085
   4.36087    -28.174085
   4.42162    -28.173797
   4.48238    -28.172879
   4.54314    -28.171553
   4.60390    -28.169802
   4.66466    -28.167817
   4.72542    -28.165795
   4.78618    -28.164119
   4.84694    -28.162971
   4.90770    -28.162552
 
# Band-Index    2
   4.90770    -28.162551
   4.84694    -28.162969
   4.78618    -28.164117
   4.72542    -28.165793
   4.66466    -28.167815
   4.60390    -28.169800
   4.54314    -28.171551
   4.48238    -28.172877
   4.42162    -28.173795
   4.36087    -28.174083
   4.36087    -28.174083
   4.30563    -28.172791
   4.25039    -28.171259
   4.19515    -28.169564
   4.13991    -28.167752
   4.08467    -28.165815
   4.02943    -28.163898
   3.97419    -28.161941
   3.91895    -28.160042
   3.86371    -28.158292
   3.80848    -28.156690
   3.75324    -28.155377
   3.69800    -28.154393
   3.64276    -28.153773
   3.58752    -28.153542
   3.58752    -28.153542
   3.53180    -28.153498
   3.47609    -28.153298
   3.42037    -28.152948
   3.36466    -28.152370
   3.30895    -28.151661
   3.25323    -28.150717
   3.19752    -28.149549
   3.14180    -28.148109
   3.08609    -28.146422
   3.03037    -28.144365
   2.97466    -28.142183
   2.91894    -28.139847
   2.86323    -28.137397
   2.80751    -28.135006
   2.75180    -28.132911
   2.69608    -28.131395
   2.64037    -28.130714
   2.64037    -28.130714
   2.58764    -28.131059
   2.53491    -28.131739
   2.48218    -28.132809
   2.42946    -28.134235
   2.37673    -28.136132
   2.32400    -28.138557
   2.27127    -28.141245
   2.21854    -28.144264
   2.16581    -28.147642
   2.11309    -28.151093
   2.06036    -28.154752
   2.00763    -28.157592
   1.95490    -28.159020
   1.90217    -28.160251
   1.84945    -28.161160
   1.79672    -28.161866
   1.74399    -28.162403
   1.69126    -28.162756
   1.63853    -28.162984
   1.58581    -28.163088
   1.53308    -28.163096
   1.48035    -28.163046
   1.48035    -28.163046
   1.41590    -28.162924
   1.35146    -28.162917
   1.28701    -28.162765
   1.22257    -28.162632
   1.15812    -28.162548
   1.09368    -28.162551
   1.09368    -28.162551
   1.03899    -28.162260
   0.98431    -28.161715
   0.92962    -28.160943
   0.87494    -28.159898
   0.82026    -28.158495
   0.76557    -28.156819
   0.71089    -28.154902
   0.65621    -28.152667
   0.60152    -28.150395
   0.54684    -28.148001
   0.49215    -28.145396
   0.43747    -28.142960
   0.38279    -28.140565
   0.32810    -28.138252
   0.27342    -28.136174
   0.21874    -28.134368
   0.16405    -28.132946
   0.10937    -28.131840
   0.05468    -28.131157
   0.00000    -28.130714
 
# Band-Index    3
   0.00000    -28.130711
   0.05468    -28.131156
   0.10937    -28.131839
   0.16405    -28.132944
   0.21874    -28.134367
   0.27342    -28.136173
   0.32810    -28.137916
   0.38279    -28.138157
   0.43747    -28.137880
   0.49215    -28.136924
   0.54684    -28.135437
   0.60152    -28.133186
   0.65621    -28.130249
   0.71089    -28.126657
   0.76557    -28.122363
   0.82026    -28.117407
   0.87494    -28.111809
   0.92962    -28.105515
   0.98431    -28.098643
   1.03899    -28.091362
   1.09368    -28.083564
   1.09368    -28.083564
   1.15812    -28.083495
   1.22257    -28.083230
   1.28701    -28.082978
   1.35146    -28.082607
   1.41590    -28.082229
   1.48035    -28.081898
   1.48035    -28.081898
   1.53308    -28.081792
   1.58581    -28.081888
   1.63853    -28.082299
   1.69126    -28.083140
   1.74399    -28.084728
   1.79672    -28.087204
   1.84945    -28.090722
   1.90217    -28.095285
   1.95490    -28.100396
   2.00763    -28.105681
   2.06036    -28.110832
   2.11309    -28.115518
   2.16581    -28.119712
   2.21854    -28.123188
   2.27127    -28.125913
   2.32400    -28.128019
   2.37673    -28.129446
   2.42946    -28.130376
   2.48218    -28.130858
   2.53491    -28.130975
   2.58764    -28.130950
   2.64037    -28.130711
   2.64037    -28.130711
   2.69608    -28.130734
   2.75180    -28.130385
   2.80751    -28.129670
   2.86323    -28.128839
   2.91894    -28.127812
   2.97466    -28.126812
   3.03037    -28.125501
   3.08609    -28.124115
   3.14180    -28.122797
   3.19752    -28.121382
   3.25323    -28.120025
   3.30895    -28.118731
   3.36466    -28.117642
   3.42037    -28.116742
   3.47609    -28.116066
   3.53180    -28.115637
   3.58752    -28.115079
   3.58752    -28.115079
   3.64276    -28.114303
   3.69800    -28.111187
   3.75324    -28.106905
   3.80848    -28.102186
   3.86371    -28.097369
   3.91895    -28.092599
   3.97419    -28.087846
   4.02943    -28.083073
   4.08467    -28.078071
   4.13991    -28.072839
   4.19515    -28.067136
   4.25039    -28.060963
   4.30563    -28.054287
   4.36087    -28.047083
   4.36087    -28.047083
   4.42162    -28.048575
   4.48238    -28.052507
   4.54314    -28.058006
   4.60390    -28.064084
   4.66466    -28.070128
   4.72542    -28.075453
   4.78618    -28.079743
   4.84694    -28.082546
   4.90770    -28.083564
 
# Band-Index    4
   4.90770    -28.083561
   4.84694    -28.082542
   4.78618    -28.079740
   4.72542    -28.075449
   4.66466    -28.070125
   4.60390    -28.064081
   4.54314    -28.058003
   4.48238    -28.052505
   4.42162    -28.048572
   4.36087    -28.047080
   4.36087    -28.047080
   4.30563    -28.039428
   4.25039    -28.031614
   4.19515    -28.025906
   4.13991    -28.028163
   4.08467    -28.032914
   4.02943    -28.037811
   3.97419    -28.042424
   3.91895    -28.046769
   3.86371    -28.050601
   3.80848    -28.053837
   3.75324    -28.056512
   3.69800    -28.058516
   3.64276    -28.059730
   3.58752    -28.059939
   3.58752    -28.059939
   3.53180    -28.060271
   3.47609    -28.060682
   3.42037    -28.061396
   3.36466    -28.062451
   3.30895    -28.063887
   3.25323    -28.065710
   3.19752    -28.067990
   3.14180    -28.070707
   3.08609    -28.073793
   3.03037    -28.077193
   2.97466    -28.080838
   2.91894    -28.084594
   2.86323    -28.088297
   2.80751    -28.091728
   2.75180    -28.094529
   2.69608    -28.096419
   2.64037    -28.097043
   2.64037    -28.097043
   2.58764    -28.096657
   2.53491    -28.095373
   2.48218    -28.093324
   2.42946    -28.090796
   2.37673    -28.087904
   2.32400    -28.084866
   2.27127    -28.081809
   2.21854    -28.078831
   2.16581    -28.075979
   2.11309    -28.073222
   2.06036    -28.070532
   2.00763    -28.067860
   1.95490    -28.064825
   1.90217    -28.061136
   1.84945    -28.056435
   1.79672    -28.050435
   1.74399    -28.043107
   1.69126    -28.034621
   1.63853    -28.025350
   1.58581    -28.015515
   1.53308    -28.019222
   1.48035    -28.030274
   1.48035    -28.030274
   1.41590    -28.043463
   1.35146    -28.055869
   1.28701    -28.066778
   1.22257    -28.075590
   1.15812    -28.081414
   1.09368    -28.083561
   1.09368    -28.083561
   1.03899    -28.075194
   0.98431    -28.066445
   0.92962    -28.057350
   0.87494    -28.047947
   0.82026    -28.038295
   0.76557    -28.041834
   0.71089    -28.048726
   0.65621    -28.055285
   0.60152    -28.061522
   0.54684    -28.067367
   0.49215    -28.072774
   0.43747    -28.077726
   0.38279    -28.082176
   0.32810    -28.086097
   0.27342    -28.089457
   0.21874    -28.092237
   0.16405    -28.094418
   0.10937    -28.095922
   0.05468    -28.096848
   0.00000    -28.097043
 
# Band-Index    5
   0.00000    -28.097043
   0.05468    -28.096085
   0.10937    -28.093203
   0.16405    -28.088724
   0.21874    -28.083107
   0.27342    -28.076634
   0.32810    -28.069488
   0.38279    -28.061765
   0.43747    -28.053622
   0.49215    -28.045007
   0.54684    -28.036380
   0.60152    -28.027352
   0.65621    -28.018151
   0.71089    -28.018487
   0.76557    -28.028453
   0.82026    -28.034682
   0.87494    -28.027315
   0.92962    -28.019780
   0.98431    -28.012120
   1.03899    -28.004495
   1.09368    -27.996751
   1.09368    -27.996751
   1.15812    -27.997043
   1.22257    -27.997818
   1.28701    -27.999338
   1.35146    -28.001342
   1.41590    -28.003877
   1.48035    -28.006898
   1.48035    -28.006898
   1.53308    -28.009799
   1.58581    -28.013033
   1.63853    -28.016488
   1.69126    -28.020080
   1.74399    -28.024142
   1.79672    -28.028300
   1.84945    -28.032721
   1.90217    -28.037331
   1.95490    -28.042166
   2.00763    -28.047043
   2.06036    -28.051964
   2.11309    -28.057102
   2.16581    -28.062301
   2.21854    -28.067444
   2.27127    -28.072552
   2.32400    -28.077564
   2.37673    -28.082387
   2.42946    -28.086904
   2.48218    -28.090932
   2.53491    -28.094195
   2.58764    -28.096359
   2.64037    -28.097043
   2.64037    -28.097043
   2.69608    -28.096419
   2.75180    -28.094529
   2.80751    -28.091728
   2.86323    -28.088297
   2.91894    -28.084594
   2.97466    -28.080838
   3.03037    -28.077193
   3.08609    -28.073793
   3.14180    -28.070707
   3.19752    -28.067990
   3.25323    -28.065710
   3.30895    -28.063887
   3.36466    -28.062451
   3.42037    -28.061396
   3.47609    -28.060682
   3.53180    -28.060271
   3.58752    -28.059939
   3.58752    -28.059939
   3.64276    -28.059534
   3.69800    -28.057697
   3.75324    -28.054596
   3.80848    -28.050231
   3.86371    -28.044730
   3.91895    -28.038134
   3.97419    -28.030710
   4.02943    -28.022777
   4.08467    -28.014538
   4.13991    -28.010832
   4.19515    -28.016683
   4.25039    -28.014096
   4.30563    -28.008856
   4.36087    -28.003170
   4.36087    -28.003170
   4.42162    -28.002573
   4.48238    -28.001179
   4.54314    -27.999738
   4.60390    -27.998601
   4.66466    -27.997830
   4.72542    -27.997296
   4.78618    -27.996933
   4.84694    -27.996758
   4.90770    -27.996751
 
# Band-Index    6
   4.90770    -27.996750
   4.84694    -27.996756
   4.78618    -27.996932
   4.72542    -27.997295
   4.66466    -27.997829
   4.60390    -27.998599
   4.54314    -27.999736
   4.48238    -28.001177
   4.42162    -28.002571
   4.36087    -28.003169
   4.36087    -28.003169
   4.30563    -27.997613
   4.25039    -27.993879
   4.19515    -27.998599
   4.13991    -28.006379
   4.08467    -28.001902
   4.02943    -27.992430
   3.97419    -27.982818
   3.91895    -27.973309
   3.86371    -27.964287
   3.80848    -27.956084
   3.75324    -27.949378
   3.69800    -27.944950
   3.64276    -27.942750
   3.58752    -27.942097
   3.58752    -27.942097
   3.53180    -27.942077
   3.47609    -27.941890
   3.42037    -27.941540
   3.36466    -27.940974
   3.30895    -27.940149
   3.25323    -27.938910
   3.19752    -27.937433
   3.14180    -27.935608
   3.08609    -27.933413
   3.03037    -27.930803
   2.97466    -27.928010
   2.91894    -27.924955
   2.86323    -27.921834
   2.80751    -27.918724
   2.75180    -27.915833
   2.69608    -27.913470
   2.64037    -27.912391
   2.64037    -27.912391
   2.58764    -27.913853
   2.53491    -27.917101
   2.48218    -27.921102
   2.42946    -27.925421
   2.37673    -27.929876
   2.32400    -27.934419
   2.27127    -27.939015
   2.21854    -27.943667
   2.16581    -27.948180
   2.11309    -27.952522
   2.06036    -27.956794
   2.00763    -27.960938
   1.95490    -27.964973
   1.90217    -27.968756
   1.84945    -27.972317
   1.79672    -27.975660
   1.74399    -27.978776
   1.69126    -27.985955
   1.63853    -27.996882
   1.58581    -28.008027
   1.53308    -28.005363
   1.48035    -27.995136
   1.48035    -27.995136
   1.41590    -27.992365
   1.35146    -27.994015
   1.28701    -27.995212
   1.22257    -27.995982
   1.15812    -27.996482
   1.09368    -27.996750
   1.09368    -27.996750
   1.03899    -27.989023
   0.98431    -27.981268
   0.92962    -27.973736
   0.87494    -27.980820
   0.82026    -27.990116
   0.76557    -27.999475
   0.71089    -28.008841
   0.65621    -28.008437
   0.60152    -27.998421
   0.54684    -27.988481
   0.49215    -27.978668
   0.43747    -27.969142
   0.38279    -27.959848
   0.32810    -27.950891
   0.27342    -27.942311
   0.21874    -27.934309
   0.16405    -27.926937
   0.10937    -27.920252
   0.05468    -27.914941
   0.00000    -27.912391
 
# Band-Index    7
   0.00000    -27.912391
   0.05468    -27.912274
   0.10937    -27.911377
   0.16405    -27.909876
   0.21874    -27.907747
   0.27342    -27.907071
   0.32810    -27.910203
   0.38279    -27.913823
   0.43747    -27.917990
   0.49215    -27.922640
   0.54684    -27.927871
   0.60152    -27.933412
   0.65621    -27.939349
   0.71089    -27.945674
   0.76557    -27.952302
   0.82026    -27.959217
   0.87494    -27.966380
   0.92962    -27.971569
   0.98431    -27.962475
   1.03899    -27.953810
   1.09368    -27.945386
   1.09368    -27.945386
   1.15812    -27.947338
   1.22257    -27.952903
   1.28701    -27.961266
   1.35146    -27.971484
   1.41590    -27.982952
   1.48035    -27.990444
   1.48035    -27.990444
   1.53308    -27.988668
   1.58581    -27.986572
   1.63853    -27.984217
   1.69126    -27.981608
   1.74399    -27.975482
   1.79672    -27.965652
   1.84945    -27.956954
   1.90217    -27.950402
   1.95490    -27.946540
   2.00763    -27.943986
   2.06036    -27.941663
   2.11309    -27.939233
   2.16581    -27.936656
   2.21854    -27.933806
   2.27127    -27.930733
   2.32400    -27.927516
   2.37673    -27.924228
   2.42946    -27.920986
   2.48218    -27.917883
   2.53491    -27.915193
   2.58764    -27.913309
   2.64037    -27.912391
   2.64037    -27.912391
   2.69608    -27.913470
   2.75180    -27.915833
   2.80751    -27.918724
   2.86323    -27.921834
   2.91894    -27.924955
   2.97466    -27.928010
   3.03037    -27.930802
   3.08609    -27.933413
   3.14180    -27.935608
   3.19752    -27.937433
   3.25323    -27.938910
   3.30895    -27.940149
   3.36466    -27.940974
   3.42037    -27.941540
   3.47609    -27.941890
   3.53180    -27.942076
   3.58752    -27.942097
   3.58752    -27.942097
   3.64276    -27.942633
   3.69800    -27.944117
   3.75324    -27.946353
   3.80848    -27.949541
   3.86371    -27.953401
   3.91895    -27.957773
   3.97419    -27.962583
   4.02943    -27.967734
   4.08467    -27.973111
   4.13991    -27.978659
   4.19515    -27.983962
   4.25039    -27.986818
   4.30563    -27.981676
   4.36087    -27.975162
   4.36087    -27.975162
   4.42162    -27.974319
   4.48238    -27.971654
   4.54314    -27.967694
   4.60390    -27.962725
   4.66466    -27.957534
   4.72542    -27.952735
   4.78618    -27.948816
   4.84694    -27.946273
   4.90770    -27.945386
 
# Band-Index    8
   4.90770    -27.945383
   4.84694    -27.946270
   4.78618    -27.948814
   4.72542    -27.952733
   4.66466    -27.957531
   4.60390    -27.962722
   4.54314    -27.967692
   4.48238    -27.971652
   4.42162    -27.974317
   4.36087    -27.975160
   4.36087    -27.975160
   4.30563    -27.969035
   4.25039    -27.963452
   4.19515    -27.958514
   4.13991    -27.954213
   4.08467    -27.950461
   4.02943    -27.947262
   3.97419    -27.944528
   3.91895    -27.942207
   3.86371    -27.940170
   3.80848    -27.938201
   3.75324    -27.936023
   3.69800    -27.933369
   3.64276    -27.930803
   3.58752    -27.929658
   3.58752    -27.929658
   3.53180    -27.929568
   3.47609    -27.929117
   3.42037    -27.928388
   3.36466    -27.927411
   3.30895    -27.926223
   3.25323    -27.924906
   3.19752    -27.923424
   3.14180    -27.921862
   3.08609    -27.920257
   3.03037    -27.918723
   2.97466    -27.917279
   2.91894    -27.915944
   2.86323    -27.914812
   2.80751    -27.913887
   2.75180    -27.913204
   2.69608    -27.912679
   2.64037    -27.912388
   2.64037    -27.912388
   2.58764    -27.912218
   2.53491    -27.911418
   2.48218    -27.909916
   2.42946    -27.907823
   2.37673    -27.905162
   2.32400    -27.901975
   2.27127    -27.903194
   2.21854    -27.906337
   2.16581    -27.910370
   2.11309    -27.915187
   2.06036    -27.920846
   2.00763    -27.927176
   1.95490    -27.933774
   1.90217    -27.939482
   1.84945    -27.942928
   1.79672    -27.944643
   1.74399    -27.945574
   1.69126    -27.946050
   1.63853    -27.946317
   1.58581    -27.946408
   1.53308    -27.946381
   1.48035    -27.946273
   1.48035    -27.946273
   1.41590    -27.946094
   1.35146    -27.945891
   1.28701    -27.945699
   1.22257    -27.945515
   1.15812    -27.945418
   1.09368    -27.945383
   1.09368    -27.945383
   1.03899    -27.937300
   0.98431    -27.929630
   0.92962    -27.922427
   0.87494    -27.915774
   0.82026    -27.909656
   0.76557    -27.904142
   0.71089    -27.899281
   0.65621    -27.895104
   0.60152    -27.891649
   0.54684    -27.888940
   0.49215    -27.891525
   0.43747    -27.895242
   0.38279    -27.898794
   0.32810    -27.902121
   0.27342    -27.905135
   0.21874    -27.907746
   0.16405    -27.909875
   0.10937    -27.911376
   0.05468    -27.912272
   0.00000    -27.912388
 
# Band-Index    9
   0.00000    -27.899699
   0.05468    -27.900115
   0.10937    -27.900995
   0.16405    -27.902455
   0.21874    -27.904485
   0.27342    -27.905133
   0.32810    -27.902120
   0.38279    -27.898793
   0.43747    -27.895240
   0.49215    -27.891524
   0.54684    -27.887937
   0.60152    -27.884296
   0.65621    -27.880793
   0.71089    -27.877535
   0.76557    -27.874536
   0.82026    -27.871890
   0.87494    -27.869646
   0.92962    -27.867826
   0.98431    -27.866467
   1.03899    -27.865749
   1.09368    -27.865490
   1.09368    -27.865490
   1.15812    -27.865458
   1.22257    -27.865312
   1.28701    -27.865179
   1.35146    -27.865018
   1.41590    -27.864845
   1.48035    -27.864706
   1.48035    -27.864707
   1.53308    -27.864660
   1.58581    -27.864709
   1.63853    -27.864836
   1.69126    -27.865069
   1.74399    -27.865466
   1.79672    -27.865947
   1.84945    -27.866671
   1.90217    -27.867596
   1.95490    -27.871098
   2.00763    -27.875739
   2.06036    -27.880440
   2.11309    -27.885204
   2.16581    -27.889889
   2.21854    -27.894232
   2.27127    -27.898304
   2.32400    -27.900912
   2.37673    -27.899423
   2.42946    -27.898736
   2.48218    -27.898664
   2.53491    -27.899024
   2.58764    -27.899531
   2.64037    -27.899699
   2.64037    -27.899699
   2.69608    -27.898940
   2.75180    -27.896996
   2.80751    -27.894558
   2.86323    -27.892062
   2.91894    -27.889659
   2.97466    -27.887440
   3.03037    -27.885437
   3.08609    -27.883747
   3.14180    -27.882244
   3.19752    -27.880972
   3.25323    -27.879935
   3.30895    -27.879162
   3.36466    -27.878537
   3.42037    -27.878093
   3.47609    -27.877789
   3.53180    -27.877615
   3.58752    -27.877446
   3.58752    -27.877446
   3.64276    -27.877269
   3.69800    -27.876429
   3.75324    -27.875104
   3.80848    -27.873417
   3.86371    -27.871512
   3.91895    -27.869393
   3.97419    -27.867197
   4.02943    -27.865019
   4.08467    -27.862846
   4.13991    -27.860785
   4.19515    -27.858840
   4.25039    -27.857073
   4.30563    -27.855541
   4.36087    -27.854244
   4.36087    -27.854244
   4.42162    -27.854529
   4.48238    -27.855329
   4.54314    -27.856657
   4.60390    -27.858342
   4.66466    -27.860256
   4.72542    -27.862150
   4.78618    -27.863874
   4.84694    -27.865046
   4.90770    -27.865490
 
# Band-Index   10
   4.90770    -27.865488
   4.84694    -27.865044
   4.78618    -27.863872
   4.72542    -27.862148
   4.66466    -27.860253
   4.60390    -27.858340
   4.54314    -27.856654
   4.48238    -27.855326
   4.42162    -27.854526
   4.36087    -27.854241
   4.36087    -27.854241
   4.30563    -27.853292
   4.25039    -27.852721
   4.19515    -27.852570
   4.13991    -27.852943
   4.08467    -27.853832
   4.02943    -27.855375
   3.97419    -27.857477
   3.91895    -27.860164
   3.86371    -27.863376
   3.80848    -27.866925
   3.75324    -27.870629
   3.69800    -27.874075
   3.64276    -27.876606
   3.58752    -27.877445
   3.58752    -27.877445
   3.53180    -27.877614
   3.47609    -27.877788
   3.42037    -27.878093
   3.36466    -27.878536
   3.30895    -27.879162
   3.25323    -27.879935
   3.19752    -27.880971
   3.14180    -27.882243
   3.08609    -27.883747
   3.03037    -27.885437
   2.97466    -27.887439
   2.91894    -27.889659
   2.86323    -27.892062
   2.80751    -27.894557
   2.75180    -27.896996
   2.69608    -27.898940
   2.64037    -27.899698
   2.64037    -27.899698
   2.58764    -27.898600
   2.53491    -27.895858
   2.48218    -27.892666
   2.42946    -27.889407
   2.37673    -27.886240
   2.32400    -27.883242
   2.27127    -27.880474
   2.21854    -27.877979
   2.16581    -27.875652
   2.11309    -27.873535
   2.06036    -27.871714
   2.00763    -27.870117
   1.95490    -27.868774
   1.90217    -27.866697
   1.84945    -27.862599
   1.79672    -27.859028
   1.74399    -27.856044
   1.69126    -27.853629
   1.63853    -27.852067
   1.58581    -27.851191
   1.53308    -27.851060
   1.48035    -27.851702
   1.48035    -27.851702
   1.41590    -27.853444
   1.35146    -27.856041
   1.28701    -27.859142
   1.22257    -27.862161
   1.15812    -27.864542
   1.09368    -27.865488
   1.09368    -27.865488
   1.03899    -27.865747
   0.98431    -27.866465
   0.92962    -27.867824
   0.87494    -27.869644
   0.82026    -27.871888
   0.76557    -27.874535
   0.71089    -27.877533
   0.65621    -27.880792
   0.60152    -27.884294
   0.54684    -27.887936
   0.49215    -27.886948
   0.43747    -27.885885
   0.38279    -27.885525
   0.32810    -27.885930
   0.27342    -27.887028
   0.21874    -27.888986
   0.16405    -27.891662
   0.10937    -27.894836
   0.05468    -27.898082
   0.00000    -27.899698
 
# Band-Index   11
   0.00000    -13.906801
   0.05468    -13.895959
   0.10937    -13.863386
   0.16405    -13.809130
   0.21874    -13.733286
   0.27342    -13.635898
   0.32810    -13.517081
   0.38279    -13.377009
   0.43747    -13.215812
   0.49215    -13.033695
   0.54684    -12.830940
   0.60152    -12.607778
   0.65621    -12.364545
   0.71089    -12.101637
   0.76557    -11.819432
   0.82026    -11.518405
   0.87494    -11.199104
   0.92962    -10.862076
   0.98431    -10.507969
   1.03899    -10.137500
   1.09368     -9.751387
   1.09368     -9.751387
   1.15812     -9.762766
   1.22257     -9.798251
   1.28701     -9.861473
   1.35146     -9.957538
   1.41590    -10.091478
   1.48035    -10.266224
   1.48035    -10.266224
   1.53308    -10.439127
   1.58581    -10.636311
   1.63853    -10.853592
   1.69126    -11.085856
   1.74399    -11.327677
   1.79672    -11.573836
   1.84945    -11.819695
   1.90217    -12.061261
   1.95490    -12.295187
   2.00763    -12.518770
   2.06036    -12.729837
   2.11309    -12.926602
   2.16581    -13.107676
   2.21854    -13.271956
   2.27127    -13.418532
   2.32400    -13.546718
   2.37673    -13.655992
   2.42946    -13.745901
   2.48218    -13.816125
   2.53491    -13.866464
   2.58764    -13.896721
   2.64037    -13.906801
   2.64037    -13.906801
   2.69608    -13.895547
   2.75180    -13.861780
   2.80751    -13.805650
   2.86323    -13.727451
   2.91894    -13.627534
   2.97466    -13.506481
   3.03037    -13.365129
   3.08609    -13.204603
   3.14180    -13.026555
   3.19752    -12.833401
   3.25323    -12.628630
   3.30895    -12.417519
   3.36466    -12.208015
   3.42037    -12.012006
   3.47609    -11.846572
   3.53180    -11.733281
   3.58752    -11.692569
   3.58752    -11.692569
   3.64276    -11.681137
   3.69800    -11.646878
   3.75324    -11.589907
   3.80848    -11.510433
   3.86371    -11.408768
   3.91895    -11.285337
   3.97419    -11.140726
   4.02943    -10.975735
   4.08467    -10.791431
   4.13991    -10.589241
   4.19515    -10.371081
   4.25039    -10.139534
   4.30563     -9.898033
   4.36087     -9.651140
   4.36087     -9.651140
   4.42162     -9.654311
   4.48238     -9.663381
   4.54314     -9.677129
   4.60390     -9.693746
   4.66466     -9.711143
   4.72542     -9.727223
   4.78618     -9.740144
   4.84694     -9.748499
   4.90770     -9.751387
 
# Band-Index   12
   4.90770     -9.751380
   4.84694     -9.748493
   4.78618     -9.740138
   4.72542     -9.727217
   4.66466     -9.711137
   4.60390     -9.693740
   4.54314     -9.677123
   4.48238     -9.663375
   4.42162     -9.654305
   4.36087     -9.651135
   4.36087     -9.651135
   4.30563     -9.404819
   4.25039     -9.166603
   4.19515     -8.945394
   4.13991     -8.750475
   4.08467     -8.589733
   4.02943     -8.467453
   3.97419     -8.382933
   3.91895     -8.330952
   3.86371     -8.303765
   3.80848     -8.293238
   3.75324     -8.292266
   3.69800     -8.295333
   3.64276     -8.298636
   3.58752     -8.299974
   3.58752     -8.299974
   3.53180     -8.235474
   3.47609     -8.050859
   3.42037     -7.766786
   3.36466     -7.405202
   3.30895     -6.983700
   3.25323     -6.514910
   3.19752     -6.007754
   3.14180     -5.468721
   3.08609     -4.902897
   3.03037     -4.314713
   2.97466     -3.708381
   2.91894     -3.088384
   2.86323     -2.459987
   2.80751     -1.829878
   2.75180     -1.207855
   2.69608     -0.613455
   2.64037     -0.198992
   2.64037     -0.198992
   2.58764     -0.575072
   2.53491     -1.115397
   2.48218     -1.674207
   2.42946     -2.233539
   2.37673     -2.785277
   2.32400     -3.324550
   2.27127     -3.848150
   2.21854     -4.353850
   2.16581     -4.840030
   2.11309     -5.305530
   2.06036     -5.749507
   2.00763     -6.171349
   1.95490     -6.570575
   1.90217     -6.946831
   1.84945     -7.299858
   1.79672     -7.629463
   1.74399     -7.935518
   1.69126     -8.217891
   1.63853     -8.476509
   1.58581     -8.711315
   1.53308     -8.922269
   1.48035     -9.109348
   1.48035     -9.109348
   1.41590     -9.305559
   1.35146     -9.466082
   1.28701     -9.590917
   1.22257     -9.680071
   1.15812     -9.733559
   1.09368     -9.751380
   1.09368     -9.751380
   1.03899     -9.350427
   0.98431     -8.935500
   0.92962     -8.507464
   0.87494     -8.067223
   0.82026     -7.615722
   0.76557     -7.153843
   0.71089     -6.682486
   0.65621     -6.202518
   0.60152     -5.714714
   0.54684     -5.219819
   0.49215     -4.718511
   0.43747     -4.211377
   0.38279     -3.698986
   0.32810     -3.181915
   0.27342     -2.660781
   0.21874     -2.136423
   0.16405     -1.610165
   0.10937     -1.084694
   0.05468     -0.569551
   0.00000     -0.198992
 
# Band-Index   13
   0.00000     -0.198946
   0.05468     -0.247304
   0.10937     -0.381697
   0.16405     -0.578204
   0.21874     -0.812409
   0.27342     -1.065582
   0.32810     -1.324859
   0.38279     -1.581670
   0.43747     -1.830250
   0.49215     -2.066621
   0.54684     -2.287970
   0.60152     -2.492238
   0.65621     -2.677905
   0.71089     -2.843798
   0.76557     -2.989022
   0.82026     -3.112894
   0.87494     -3.214882
   0.92962     -3.294587
   0.98431     -3.351715
   1.03899     -3.386069
   1.09368     -3.397532
   1.09368     -3.397532
   1.15812     -3.480012
   1.22257     -3.694939
   1.28701     -3.974608
   1.35146     -4.257714
   1.41590     -4.501939
   1.48035     -4.681507
   1.48035     -4.681507
   1.53308     -4.770914
   1.58581     -4.805896
   1.63853     -4.787371
   1.69126     -4.718324
   1.74399     -4.602822
   1.79672     -4.445306
   1.84945     -4.250201
   1.90217     -4.021685
   1.95490     -3.763696
   2.00763     -3.480021
   2.06036     -3.174428
   2.11309     -2.850861
   2.16581     -2.513633
   2.21854     -2.167750
   2.27127     -1.819244
   2.32400     -1.475628
   2.37673     -1.146365
   2.42946     -0.843337
   2.48218     -0.581038
   2.53491     -0.375945
   2.58764     -0.244403
   2.64037     -0.198946
   2.64037     -0.198946
   2.69608     -0.220749
   2.75180     -0.283078
   2.80751     -0.378056
   2.86323     -0.495836
   2.91894     -0.626994
   2.97466     -0.763705
   3.03037     -0.899916
   3.08609     -1.031129
   3.14180     -1.154042
   3.19752     -1.266250
   3.25323     -1.365999
   3.30895     -1.452025
   3.36466     -1.523411
   3.42037     -1.579506
   3.47609     -1.619862
   3.53180     -1.644187
   3.58752     -1.652311
   3.58752     -1.652311
   3.64276     -1.790967
   3.69800     -2.124484
   3.75324     -2.535944
   3.80848     -2.960843
   3.86371     -3.366023
   3.91895     -3.730682
   3.97419     -4.039253
   4.02943     -4.279706
   4.08467     -4.444356
   4.13991     -4.531159
   4.19515     -4.543911
   4.25039     -4.490708
   4.30563     -4.381630
   4.36087     -4.226886
   4.36087     -4.226886
   4.42162     -4.206201
   4.48238     -4.145591
   4.54314     -4.049479
   4.60390     -3.925441
   4.66466     -3.784559
   4.72542     -3.641878
   4.78618     -3.516370
   4.84694     -3.429026
   4.90770     -3.397532
 
# Band-Index   14
   4.90770     -3.397512
   4.84694     -3.429006
   4.78618     -3.516352
   4.72542     -3.641860
   4.66466     -3.784544
   4.60390     -3.925426
   4.54314     -4.049466
   4.48238     -4.145579
   4.42162     -4.206189
   4.36087     -4.226875
   4.36087     -4.226875
   4.30563     -4.035911
   4.25039     -3.817252
   4.19515     -3.578701
   4.13991     -3.327649
   4.08467     -3.071406
   4.02943     -2.817389
   3.97419     -2.573137
   3.91895     -2.346096
   3.86371     -2.143255
   3.80848     -1.970630
   3.75324     -1.832843
   3.69800     -1.732921
   3.64276     -1.672510
   3.58752     -1.652310
   3.58752     -1.652310
   3.53180     -1.644187
   3.47609     -1.619862
   3.42037     -1.579506
   3.36466     -1.523411
   3.30895     -1.452025
   3.25323     -1.365999
   3.19752     -1.266249
   3.14180     -1.154041
   3.08609     -1.031129
   3.03037     -0.899916
   2.97466     -0.763705
   2.91894     -0.626994
   2.86323     -0.495836
   2.80751     -0.378056
   2.75180     -0.283077
   2.69608     -0.220748
   2.64037     -0.198946
   2.64037     -0.198946
   2.58764     -0.205689
   2.53491     -0.226083
   2.48218     -0.260618
   2.42946     -0.309968
   2.37673     -0.374897
   2.32400     -0.456078
   2.27127     -0.553905
   2.21854     -0.668313
   2.16581     -0.798636
   2.11309     -0.943593
   2.06036     -1.101304
   2.00763     -1.269411
   1.95490     -1.445219
   1.90217     -1.625853
   1.84945     -1.808411
   1.79672     -1.990085
   1.74399     -2.168252
   1.69126     -2.340511
   1.63853     -2.504720
   1.58581     -2.658973
   1.53308     -2.801635
   1.48035     -2.931282
   1.48035     -2.931282
   1.41590     -3.070331
   1.35146     -3.186366
   1.28701     -3.277993
   1.22257     -3.344159
   1.15812     -3.384141
   1.09368     -3.397512
   1.09368     -3.397512
   1.03899     -3.386049
   0.98431     -3.351695
   0.92962     -3.294566
   0.87494     -3.214861
   0.82026     -3.112873
   0.76557     -2.989001
   0.71089     -2.843777
   0.65621     -2.677884
   0.60152     -2.492216
   0.54684     -2.287947
   0.49215     -2.066599
   0.43747     -1.830226
   0.38279     -1.581647
   0.32810     -1.324834
   0.27342     -1.065557
   0.21874     -0.812382
   0.16405     -0.578176
   0.10937     -0.381668
   0.05468     -0.247274
   0.00000     -0.198946
 
# Band-Index   15
   0.00000      0.191418
   0.05468      0.557954
   0.10937      1.059510
   0.16405      1.557270
   0.21874      2.032937
   0.27342      2.313469
   0.32810      2.107836
   0.38279      1.907033
   0.43747      1.717056
   0.49215      1.542139
   0.54684      1.385320
   0.60152      1.248827
   0.65621      1.134328
   0.71089      1.043118
   0.76557      0.976209
   0.82026      0.934410
   0.87494      0.918386
   0.92962      0.928676
   0.98431      0.965697
   1.03899      1.029756
   1.09368      1.120999
   1.09368      1.120999
   1.15812      1.133217
   1.22257      1.169683
   1.28701      1.229804
   1.35146      1.312529
   1.41590      1.416230
   1.48035      1.538525
   1.48035      1.538526
   1.53308      1.650080
   1.58581      1.769288
   1.63853      1.892800
   1.69126      2.016262
   1.74399      2.134138
   1.79672      2.239728
   1.84945      2.325563
   1.90217      2.384441
   1.95490      2.411078
   2.00763      2.403685
   2.06036      2.364436
   2.11309      2.298374
   2.16581      2.211412
   2.21854      2.108413
   2.27127      1.991700
   2.32400      1.859692
   2.37673      1.705175
   2.42946      1.513247
   2.48218      1.261691
   2.53491      0.930596
   2.58764      0.524244
   2.64037      0.191418
   2.64037      0.191418
   2.69608      0.542155
   2.75180      0.930972
   2.80751      1.180941
   2.86323      1.282450
   2.91894      1.276825
   2.97466      1.210765
   3.03037      1.115624
   3.08609      1.009594
   3.14180      0.903114
   3.19752      0.802321
   3.25323      0.710938
   3.30895      0.631272
   3.36466      0.564773
   3.42037      0.512349
   3.47609      0.474570
   3.53180      0.451785
   3.58752      0.444175
   3.58752      0.444175
   3.64276      0.582743
   3.69800      0.914055
   3.75324      1.316520
   3.80848      1.722093
   3.86371      2.100809
   3.91895      2.445098
   3.97419      2.760316
   4.02943      3.056879
   4.08467      3.345082
   4.13991      3.633014
   4.19515      3.926247
   4.25039      4.227854
   4.30563      4.536870
   4.36087      4.825087
   4.36087      4.825086
   4.42162      4.318385
   4.48238      3.701717
   4.54314      3.117846
   4.60390      2.580907
   4.66466      2.103125
   4.72542      1.699389
   4.78618      1.388069
   4.84694      1.189513
   4.90770      1.120999
 
# Band-Index   16
   4.90770      1.121014
   4.84694      1.189526
   4.78618      1.388082
   4.72542      1.699400
   4.66466      2.103135
   4.60390      2.580916
   4.54314      3.117852
   4.48238      3.701723
   4.42162      4.318389
   4.36087      4.825095
   4.36087      4.825094
   4.30563      4.789141
   4.25039      4.559574
   4.19515      4.345692
   4.13991      4.164291
   4.08467      4.020611
   4.02943      3.918139
   3.97419      3.859391
   3.91895      3.845372
   3.86371      3.874461
   3.80848      3.940798
   3.75324      4.032289
   3.69800      4.129096
   3.64276      4.204766
   3.58752      4.233702
   3.58752      4.233701
   3.53180      4.236773
   3.47609      4.245165
   3.42037      4.256364
   3.36466      4.266085
   3.30895      4.268267
   3.25323      4.255321
   3.19752      4.218989
   3.14180      4.152033
   3.08609      4.050513
   3.03037      3.915748
   2.97466      3.754735
   2.91894      3.579011
   2.86323      3.402864
   2.80751      3.241825
   2.75180      3.111529
   2.69608      3.026264
   2.64037      2.996519
   2.64037      2.996518
   2.58764      3.007808
   2.53491      3.041621
   2.48218      3.097909
   2.42946      3.176571
   2.37673      3.277464
   2.32400      3.400407
   2.27127      3.545179
   2.21854      3.711519
   2.16581      3.899127
   2.11309      4.107661
   2.06036      4.336739
   2.00763      4.585929
   1.95490      4.854744
   1.90217      5.142628
   1.84945      5.448941
   1.79672      5.772937
   1.74399      6.113697
   1.69126      6.475212
   1.63853      6.642745
   1.58581      6.014167
   1.53308      5.285385
   1.48035      4.561721
   1.48035      4.561721
   1.41590      3.712836
   1.35146      2.924651
   1.28701      2.224044
   1.22257      1.650453
   1.15812      1.261233
   1.09368      1.121014
   1.09368      1.121014
   1.03899      1.239418
   0.98431      1.384678
   0.92962      1.556062
   0.87494      1.752247
   0.82026      1.970949
   0.76557      2.208365
   0.71089      2.458242
   0.65621      2.710315
   0.60152      2.947760
   0.54684      3.143969
   0.49215      3.261201
   0.43747      3.258749
   0.38279      3.114641
   0.32810      2.840464
   0.27342      2.468903
   0.21874      2.515366
   0.16405      2.701479
   0.10937      2.855802
   0.05468      2.959642
   0.00000      2.996520
 
# Band-Index   17
   0.00000      2.996531
   0.05468      3.058178
   0.10937      3.232484
   0.16405      3.495248
   0.21874      3.821724
   0.27342      4.192671
   0.32810      4.594713
   0.38279      5.018666
   0.43747      5.458135
   0.49215      5.908537
   0.54684      6.366397
   0.60152      6.828982
   0.65621      7.293887
   0.71089      7.758586
   0.76557      8.219960
   0.82026      8.673283
   0.87494      9.110680
   0.92962      9.517889
   0.98431      9.868947
   1.03899     10.119352
   1.09368     10.213293
   1.09368     10.212948
   1.15812     10.062046
   1.22257      9.689095
   1.28701      9.250101
   1.35146      8.828755
   1.41590      8.270499
   1.48035      7.810408
   1.48035      7.819076
   1.53308      7.468335
   1.58581      7.103337
   1.63853      6.784367
   1.69126      6.610955
   1.74399      6.246878
   1.79672      6.009252
   1.84945      5.660834
   1.90217      5.328525
   1.95490      5.015408
   2.00763      4.722786
   2.06036      4.451505
   2.11309      4.202187
   2.16581      3.975318
   2.21854      3.771314
   2.27127      3.590544
   2.32400      3.433341
   2.37673      3.299991
   2.42946      3.190716
   2.48218      3.105695
   2.53491      3.045006
   2.58764      3.008634
   2.64037      2.996533
   2.64037      2.996532
   2.69608      3.026264
   2.75180      3.111529
   2.80751      3.241825
   2.86323      3.402865
   2.91894      3.579012
   2.97466      3.754735
   3.03037      3.915748
   3.08609      4.050514
   3.14180      4.152033
   3.19752      4.218990
   3.25323      4.255323
   3.30895      4.268267
   3.36466      4.266085
   3.42037      4.256365
   3.47609      4.245166
   3.53180      4.236774
   3.58752      4.233703
   3.58752      4.233703
   3.64276      4.276036
   3.69800      4.405347
   3.75324      4.627208
   3.80848      4.946165
   3.86371      5.358832
   3.91895      5.845705
   3.97419      6.354368
   4.02943      6.729736
   4.08467      6.723501
   4.13991      6.369989
   4.19515      5.985646
   4.25039      5.616747
   4.30563      5.279068
   4.36087      5.179707
   4.36087      5.179707
   4.42162      5.713163
   4.48238      6.409874
   4.54314      7.126058
   4.60390      7.844656
   4.66466      8.545829
   4.72542      9.195855
   4.78618      9.736881
   4.84694     10.092114
   4.90770     10.213184
 
# Band-Index   18
   4.90770     10.231600
   4.84694     10.116353
   4.78618      9.741724
   4.72542      9.206577
   4.66466      8.545869
   4.60390      7.844710
   4.54314      7.126065
   4.48238      6.409877
   4.42162      5.713165
   4.36087      5.179707
   4.36087      5.179707
   4.30563      5.445849
   4.25039      5.768784
   4.19515      6.110694
   4.13991      6.449360
   4.08467      6.763809
   4.02943      7.159473
   3.97419      7.546632
   3.91895      7.887354
   3.86371      8.154179
   3.80848      8.211475
   3.75324      8.103206
   3.69800      7.908207
   3.64276      7.750614
   3.58752      7.690727
   3.58752      7.690721
   3.53180      7.701644
   3.47609      7.733274
   3.42037      7.781786
   3.36466      7.824775
   3.30895      7.817765
   3.25323      7.441146
   3.19752      6.920416
   3.14180      6.365105
   3.08609      5.806634
   3.03037      5.255045
   2.97466      4.718156
   2.91894      4.208841
   2.86323      3.751597
   2.80751      3.385730
   2.75180      3.146821
   2.69608      3.029319
   2.64037      2.996533
   2.64037      2.996533
   2.58764      3.055124
   2.53491      3.233407
   2.48218      3.528985
   2.42946      3.917869
   2.37673      4.354686
   2.32400      4.785470
   2.27127      5.156556
   2.21854      5.425115
   2.16581      5.578230
   2.11309      5.640212
   2.06036      5.654018
   2.00763      5.660149
   1.95490      5.688132
   1.90217      5.755952
   1.84945      5.871750
   1.79672      6.036488
   1.74399      6.366079
   1.69126      6.734873
   1.63853      6.841100
   1.58581      7.224275
   1.53308      8.194695
   1.48035      8.103693
   1.48035      8.026129
   1.41590      8.539320
   1.35146      9.162861
   1.28701      9.573932
   1.22257      9.840574
   1.15812     10.116580
   1.09368     10.215917
   1.09368     10.216953
   1.03899     10.129594
   0.98431      9.888037
   0.92962      9.525483
   0.87494      9.147805
   0.82026      8.688929
   0.76557      8.280738
   0.71089      7.767218
   0.65621      7.357156
   0.60152      6.836034
   0.54684      6.367119
   0.49215      5.908541
   0.43747      5.458450
   0.38279      5.018669
   0.32810      4.594726
   0.27342      4.192680
   0.21874      3.821725
   0.16405      3.495257
   0.10937      3.232487
   0.05468      3.058183
   0.00000      2.996533
